# wavelength flux
       3096.7189      0.18848494
       3097.7979     0.029211130
       3098.8769      0.41795357
       3099.9559      0.24748238
       3101.0348      0.25657250
       3102.1138      0.38802967
       3103.1928      0.38276153
       3104.2718      0.33228182
       3105.3508      0.41782316
       3106.4297      0.51410891
       3107.5087      0.58030337
       3108.5877      0.62667451
       3109.6667      0.67493029
       3110.7457      0.50982714
       3111.8246      0.46490149
       3112.9036      0.37775523
       3113.9826      0.26835369
       3115.0616     0.015417125
       3116.1406    0.0086258292
       3117.2195     -0.23782667
       3118.2985    -0.043233367
       3119.3775    -0.060523091
       3120.4565     -0.21441077
       3121.5355     -0.29118825
       3122.6144      0.16425565
       3123.6934      0.20928071
       3124.7724     -0.30192849
       3125.8514     -0.20785860
       3126.9304     -0.13009603
       3128.0093     0.075297798
       3129.0883    0.0049288161
       3130.1673      0.31119294
       3131.2463      0.33453799
       3132.3253     0.086628984
       3133.4042  -0.00040463908
       3134.4832    -0.072272546
       3135.5622     0.099097673
       3136.6412      0.23615923
       3137.7201      0.32859815
       3138.7991    -0.065195720
       3139.8781   -0.0097803078
       3140.9571    -0.071119209
       3142.0361     0.074226107
       3143.1150      0.14521389
       3144.1940     0.019306686
       3145.2730     0.080917811
       3146.3520     0.010862919
       3147.4310      0.18173115
       3148.5099     0.087454540
       3149.5889     0.016250656
       3150.6679     -0.20958167
       3151.7469      0.25662020
       3152.8259     0.096059550
       3153.9048     0.031702133
       3154.9838      0.26149712
       3156.0628      0.19763809
       3157.1418      0.25018237
       3158.2208      0.35795186
       3159.2997      0.20716102
       3160.3787      0.22910399
       3161.4577      0.21555978
       3162.5367      0.26120662
       3163.6157      0.13698799
       3164.6946      0.10149384
       3165.7736      0.20217152
       3166.8526     0.082620829
       3167.9316      0.10336389
       3169.0106      0.25388294
       3170.0895    -0.021306577
       3171.1685     0.079386379
       3172.2475    0.0085310884
       3173.3265      0.13597843
       3174.4055      0.17933113
       3175.4844     0.069026070
       3176.5634      0.16729266
       3177.6424      0.40602649
       3178.7214      0.23007848
       3179.8003      0.34639574
       3180.8793      0.42187945
       3181.9583      0.51953037
       3183.0373      0.40204116
       3184.1163      0.39918861
       3185.1952      0.59422168
       3186.2742      0.47981865
       3187.3532      0.42468844
       3188.4322      0.39230990
       3189.5112      0.32079806
       3190.5901      0.35020402
       3191.6691      0.33318183
       3192.7481      0.34413906
       3193.8271      0.52060340
       3194.9061      0.51631616
       3195.9850      0.29088374
       3197.0640      0.33525756
       3198.1430      0.12581014
       3199.2220     0.076078285
       3200.3010      0.15486663
       3201.3799      0.16150576
       3202.4589      0.10678461
       3203.5379      0.12735309
       3204.6169     0.016371852
       3205.6959    -0.099530055
       3206.7748   -0.0023262835
       3207.8538     0.040435153
       3208.9328      0.17951335
       3210.0118    -0.072813301
       3211.0908   -0.0022532600
       3212.1697     0.027281717
       3213.2487     -0.11172845
       3214.3277      0.10382287
       3215.4067     0.037818310
       3216.4857      0.23576780
       3217.5646      0.15469885
       3218.6436     0.060740140
       3219.7226      0.16321506
       3220.8016     0.084524232
       3221.8805    -0.014544948
       3222.9595      0.15184728
       3224.0385      0.19647111
       3225.1175      0.19820101
       3226.1965      0.11700753
       3227.2754     0.075989879
       3228.3544      0.14270331
       3229.4334      0.18503890
       3230.5124      0.23319185
       3231.5914      0.31855787
       3232.6703      0.31888868
       3233.7493      0.31291934
       3234.8283      0.42167311
       3235.9073      0.23027286
       3236.9863      0.38751094
       3238.0652      0.37789191
       3239.1442      0.44782578
       3240.2232      0.30755676
       3241.3022      0.43246832
       3242.3812      0.37845763
       3243.4601      0.25800626
       3244.5391      0.43873165
       3245.6181      0.41373071
       3246.6971      0.41607428
       3247.7761      0.35341902
       3248.8550      0.34340144
       3249.9340      0.35532608
       3251.0130      0.34092075
       3252.0920      0.42592359
       3253.1710      0.38794698
       3254.2499      0.32450052
       3255.3289      0.22168437
       3256.4079      0.47676234
       3257.4869      0.35806307
       3258.5659      0.44780641
       3259.6448      0.41983725
       3260.7238      0.35523371
       3261.8028      0.51573617
       3262.8818      0.49549490
       3263.9607      0.58029897
       3265.0397      0.55748809
       3266.1187      0.60607058
       3267.1977      0.66459227
       3268.2767      0.57338849
       3269.3556      0.81260342
       3270.4346      0.90549428
       3271.5136      0.93003360
       3272.5926      0.87648655
       3273.6716      0.80740381
       3274.7505      0.91187921
       3275.8295      0.78094549
       3276.9085      0.84311301
       3277.9875      0.90079842
       3279.0665      0.65437160
       3280.1454      0.64209933
       3281.2244      0.61126343
       3282.3034      0.53304236
       3283.3824      0.49953831
       3284.4614      0.43446372
       3285.5403      0.35800320
       3286.6193      0.28626256
       3287.6983      0.29941669
       3288.7773      0.32316503
       3289.8563      0.15118133
       3290.9352      0.38923800
       3292.0142      0.25694090
       3293.0932      0.39986654
       3294.1722      0.31070411
       3295.2512      0.43683759
       3296.3301      0.42435135
       3297.4091      0.34634455
       3298.4881      0.47184027
       3299.5671      0.44163237
       3300.6461      0.61622167
       3301.7250      0.41662163
       3302.8040      0.36734703
       3303.8830      0.37298211
       3304.9620      0.38091421
       3306.0409      0.44129946
       3307.1199      0.49577972
       3308.1989      0.65702952
       3309.2779      0.37164337
       3310.3569      0.57916345
       3311.4358      0.44256789
       3312.5148      0.42558658
       3313.5938      0.41416503
       3314.6728      0.38362665
       3315.7518      0.38003623
       3316.8307      0.38455520
       3317.9097      0.49979359
       3318.9887      0.30791249
       3320.0677      0.44950776
       3321.1467      0.36441945
       3322.2256      0.31963794
       3323.3046      0.35416756
       3324.3836      0.47409270
       3325.4626      0.39791802
       3326.5416      0.41346135
       3327.6205      0.36283203
       3328.6995      0.50364439
       3329.7785      0.51501259
       3330.8575      0.55369833
       3331.9365      0.48018544
       3333.0154      0.56073339
       3334.0944      0.51047722
       3335.1734      0.45355870
       3336.2524      0.45657771
       3337.3314      0.35116723
       3338.4103      0.40297192
       3339.4893      0.37390490
       3340.5683      0.34802543
       3341.6473      0.12294434
       3342.7263      0.35971732
       3343.8052      0.34501614
       3344.8842      0.37391101
       3345.9632      0.34134766
       3347.0422      0.36664238
       3348.1211      0.43047417
       3349.2001      0.61799487
       3350.2791      0.63795990
       3351.3581      0.74538822
       3352.4371      0.73930230
       3353.5160      0.74947135
       3354.5950      0.76226892
       3355.6740      0.89599820
       3356.7530      0.80137049
       3357.8320      0.87401201
       3358.9109      0.76973654
       3359.9899      0.66896231
       3361.0689      0.62137489
       3362.1479      0.67144188
       3363.2269      0.54902734
       3364.3058      0.58699595
       3365.3848      0.51990574
       3366.4638      0.49676807
       3367.5428      0.59935857
       3368.6218      0.55436401
       3369.7007      0.47949276
       3370.7797      0.51489187
       3371.8587      0.58446509
       3372.9377      0.41991717
       3374.0167      0.54872386
       3375.0956      0.28182975
       3376.1746      0.33919646
       3377.2536      0.27275025
       3378.3326      0.37829772
       3379.4116      0.42322032
       3380.4905      0.42752649
       3381.5695      0.34498997
       3382.6485      0.46936196
       3383.7275      0.55013844
       3384.8065      0.35989019
       3385.8854      0.48397380
       3386.9644      0.49577391
       3388.0434      0.45797273
       3389.1224      0.51421039
       3390.2013      0.41176813
       3391.2803      0.44848080
       3392.3593      0.36727028
       3393.4383      0.38052923
       3394.5173      0.48168058
       3395.5962      0.46985610
       3396.6752      0.52795895
       3397.7542      0.45160698
       3398.8332      0.37846599
       3399.9122      0.39103152
       3400.9911      0.35708931
       3402.0701      0.40729181
       3403.1491      0.35625975
       3404.2281      0.32946610
       3405.3071      0.41976745
       3406.3860      0.25332133
       3407.4650      0.21784935
       3408.5440      0.31761237
       3409.6230      0.35150998
       3410.7020      0.40908825
       3411.7809      0.45397304
       3412.8599      0.41149087
       3413.9389      0.34757572
       3415.0179      0.49006649
       3416.0969      0.50446806
       3417.1758      0.61205832
       3418.2548      0.43494197
       3419.3338      0.65045451
       3420.4128      0.59473164
       3421.4918      0.59841318
       3422.5707      0.57445298
       3423.6497      0.49549996
       3424.7287      0.61859680
       3425.8077      0.41680694
       3426.8867      0.46150883
       3427.9656      0.32230370
       3429.0446      0.31220212
       3430.1236      0.30633572
       3431.2026      0.29825335
       3432.2815      0.33987210
       3433.3605      0.44368900
       3434.4395      0.47636935
       3435.5185      0.56187111
       3436.5975      0.61780931
       3437.6764      0.66712052
       3438.7554      0.63866137
       3439.8344      0.73542562
       3440.9134      0.76565189
       3441.9924      0.66939037
       3443.0713      0.63150714
       3444.1503      0.61109328
       3445.2293      0.68006276
       3446.3083      0.66005644
       3447.3873      0.59502638
       3448.4662      0.58641192
       3449.5452      0.67187746
       3450.6242      0.53418601
       3451.7032      0.67443755
       3452.7822      0.66521893
       3453.8611      0.61658098
       3454.9401      0.59483851
       3456.0191      0.64966754
       3457.0981      0.62473349
       3458.1771      0.57844216
       3459.2560      0.55759894
       3460.3350      0.56016060
       3461.4140      0.52519939
       3462.4930      0.43626676
       3463.5720      0.46703314
       3464.6509      0.32796054
       3465.7299      0.48496502
       3466.8089      0.56447883
       3467.8879      0.68049800
       3468.9669      0.70983949
       3470.0458      0.67248342
       3471.1248      0.80691183
       3472.2038      0.70008340
       3473.2828      0.70434474
       3474.3617      0.53027639
       3475.4407      0.77344891
       3476.5197      0.60532316
       3477.5987      0.57612552
       3478.6777      0.51411646
       3479.7566      0.41069120
       3480.8356      0.37831519
       3481.9146      0.29275185
       3482.9936      0.44454229
       3484.0726      0.42652298
       3485.1515      0.35336636
       3486.2305      0.34070784
       3487.3095      0.37217451
       3488.3885      0.45693087
       3489.4675      0.43008036
       3490.5464      0.51576434
       3491.6254      0.55912651
       3492.7044      0.53529433
       3493.7834      0.65157572
       3494.8624      0.60161360
       3495.9413      0.68056285
       3497.0203      0.65594547
       3498.0993      0.64081405
       3499.1783      0.66297518
       3500.2573      0.62298577
       3501.3362      0.59184155
       3502.4152      0.57690700
       3503.4942      0.57438467
       3504.5732      0.66635868
       3505.6522      0.61203044
       3506.7311      0.60326670
       3507.8101      0.56022521
       3508.8891      0.66378202
       3509.9681      0.63570879
       3511.0471      0.58815599
       3512.1260      0.60030854
       3513.2050      0.51416369
       3514.2840      0.50656469
       3515.3630      0.49928127
       3516.4419      0.46285484
       3517.5209      0.52196743
       3518.5999      0.58061291
       3519.6789      0.55352910
       3520.7579      0.54278470
       3521.8368      0.56608694
       3522.9158      0.63215302
       3523.9948      0.70981797
       3525.0738      0.66690394
       3526.1528      0.60519241
       3527.2317      0.60148722
       3528.3107      0.71553986
       3529.3897      0.69599018
       3530.4687      0.80475644
       3531.5477      0.76155118
       3532.6266      0.91206749
       3533.7056      0.94971681
       3534.7846       1.0431650
       3535.8636      0.94290897
       3536.9426       1.0654650
       3538.0215       1.0875199
       3539.1005      0.96704331
       3540.1795       1.0173180
       3541.2585      0.96975970
       3542.3375      0.99837901
       3543.4164      0.87063694
       3544.4954      0.85351586
       3545.5744      0.80658790
       3546.6534      0.88786084
       3547.7324      0.81165363
       3548.8113      0.89486649
       3549.8903      0.78560382
       3550.9693      0.88494742
       3552.0483      0.78733258
       3553.1273      0.74753087
       3554.2062      0.76815381
       3555.2852      0.69550663
       3556.3642      0.68601547
       3557.4432      0.59083673
       3558.5221      0.59600709
       3559.6011      0.44991764
       3560.6801      0.39832466
       3561.7591      0.35735195
       3562.8381      0.36641054
       3563.9170      0.39900393
       3564.9960      0.40915305
       3566.0750      0.46533360
       3567.1540      0.35220264
       3568.2330      0.39318663
       3569.3119      0.44340902
       3570.3909      0.39007989
       3571.4699      0.36657930
       3572.5489      0.28055720
       3573.6279      0.21560022
       3574.7068      0.27328306
       3575.7858      0.25330007
       3576.8648      0.29607379
       3577.9438      0.22785741
       3579.0228      0.31375741
       3580.1017      0.27920540
       3581.1807      0.40279432
       3582.2597      0.38317827
       3583.3387      0.42478579
       3584.4177      0.45855898
       3585.4966      0.51322489
       3586.5756      0.52122609
       3587.6546      0.55773203
       3588.7336      0.55382075
       3589.8126      0.52966860
       3590.8915      0.51649887
       3591.9705      0.47522390
       3593.0495      0.57840142
       3594.1285      0.55165435
       3595.2075      0.55835254
       3596.2864      0.48998147
       3597.3654      0.46202867
       3598.4444      0.50433198
       3599.5234      0.48169034
       3600.6023      0.39374979
       3601.6813      0.46798741
       3602.7603      0.40369138
       3603.8393      0.42194267
       3604.9183      0.44062731
       3605.9972      0.49562524
       3607.0762      0.59110611
       3608.1552      0.56760933
       3609.2342      0.58125998
       3610.3132      0.56871825
       3611.3921      0.64740539
       3612.4711      0.59915381
       3613.5501      0.63258553
       3614.6291      0.64531296
       3615.7081      0.70373404
       3616.7870      0.68007763
       3617.8660      0.67992047
       3618.9450      0.69956943
       3620.0240      0.72117131
       3621.1030      0.85510359
       3622.1819      0.73385505
       3623.2609      0.69688740
       3624.3399      0.65996894
       3625.4189      0.67055291
       3626.4979      0.60273255
       3627.5768      0.65477527
       3628.6558      0.66929967
       3629.7348      0.72254648
       3630.8138      0.78383256
       3631.8928      0.73068049
       3632.9717      0.70694255
       3634.0507      0.74299857
       3635.1297      0.73594743
       3636.2087      0.74851843
       3637.2877      0.70590575
       3638.3666      0.67973270
       3639.4456      0.66400401
       3640.5246      0.62887742
       3641.6036      0.56725081
       3642.6825      0.48774075
       3643.7615      0.59761695
       3644.8405      0.61067851
       3645.9195      0.68414048
       3646.9985      0.65219516
       3648.0774      0.71559245
       3649.1564      0.72623785
       3650.2354      0.76106962
       3651.3144      0.84264287
       3652.3934      0.91263862
       3653.4723      0.91884837
       3654.5513      0.83226930
       3655.6303      0.79797684
       3656.7093      0.81191702
       3657.7883      0.88870256
       3658.8672      0.84187299
       3659.9462      0.82598771
       3661.0252      0.79687337
       3662.1042      0.87812514
       3663.1832      0.73804317
       3664.2621      0.70664986
       3665.3411      0.66349420
       3666.4201      0.67943091
       3667.4991      0.64520616
       3668.5781      0.79841090
       3669.6570      0.61769562
       3670.7360      0.59714431
       3671.8150      0.63885420
       3672.8940      0.64666861
       3673.9730      0.55270586
       3675.0519      0.50197187
       3676.1309      0.48623796
       3677.2099      0.45065957
       3678.2889      0.45778643
       3679.3679      0.50557992
       3680.4468      0.56076409
       3681.5258      0.59713145
       3682.6048      0.50859447
       3683.6838      0.57740417
       3684.7627      0.52944212
       3685.8417      0.56405338
       3686.9207      0.61175620
       3687.9997      0.62056547
       3689.0787      0.64559773
       3690.1576      0.76396514
       3691.2366      0.74850383
       3692.3156      0.84797661
       3693.3946      0.83565966
       3694.4736      0.89507605
       3695.5525      0.97160921
       3696.6315      0.94667939
       3697.7105      0.95153808
       3698.7895      0.91668879
       3699.8685      0.87961259
       3700.9474      0.82505452
       3702.0264      0.80695168
       3703.1054      0.74543847
       3704.1844      0.67826830
       3705.2634      0.57415602
       3706.3423      0.70310484
       3707.4213      0.79747764
       3708.5003      0.88245721
       3709.5793      0.83732534
       3710.6583      0.92512996
       3711.7372      0.85116681
       3712.8162      0.85592682
       3713.8952      0.73176769
       3714.9742      0.67828763
       3716.0532      0.59038933
       3717.1321      0.51389997
       3718.2111      0.46618842
       3719.2901      0.50637888
       3720.3691      0.57460282
       3721.4481      0.62786263
       3722.5270      0.60510127
       3723.6060      0.65068883
       3724.6850      0.73426666
       3725.7640      0.81085042
       3726.8429      0.64776853
       3727.9219      0.65109916
       3729.0009      0.67605579
       3730.0799      0.61029840
       3731.1589      0.52694845
       3732.2378      0.52725410
       3733.3168      0.49607466
       3734.3958      0.66178494
       3735.4748      0.66252588
       3736.5538      0.71293542
       3737.6327      0.74824543
       3738.7117      0.74695496
       3739.7907      0.79637931
       3740.8697      0.76815069
       3741.9487      0.68098497
       3743.0276      0.65410075
       3744.1066      0.55668461
       3745.1856      0.43846980
       3746.2646      0.50903241
       3747.3436      0.53748840
       3748.4225      0.48725113
