# wavelength flux
       2510.8809     0.062134476
       2511.7658     0.018083789
       2512.6507     0.038677724
       2513.5356     0.026537054
       2514.4204     0.067796770
       2515.3053    -0.013790964
       2516.1902    -0.079542395
       2517.0750     0.017425649
       2517.9599    0.0066628279
       2518.8448     0.054366262
       2519.7297     0.036823439
       2520.6145   -0.0072420871
       2521.4994    -0.015505070
       2522.3843     0.047913096
       2523.2691     0.030309203
       2524.1540    -0.015463668
       2525.0389     0.058001194
       2525.9237     0.047353870
       2526.8086     0.069318184
       2527.6935      0.10703627
       2528.5784     0.058149154
       2529.4632    -0.019979649
       2530.3481    -0.048074804
       2531.2330    -0.040303700
       2532.1178    -0.040870562
       2533.0027   -0.0081629846
       2533.8876     0.077088807
       2534.7724     0.029894834
       2535.6573   -0.0049920004
       2536.5422    -0.030381778
       2537.4271    -0.038270888
       2538.3119    -0.030407504
       2539.1968   -0.0093689450
       2540.0817    -0.034169446
       2540.9665    -0.058647600
       2541.8514   -0.0014597607
       2542.7363     0.029514568
       2543.6212     0.046485577
       2544.5060     0.030717749
       2545.3909    -0.032907196
       2546.2758     0.025705716
       2547.1606    -0.035435030
       2548.0455    0.0054289647
       2548.9304     0.090364278
       2549.8152     0.048043198
       2550.7001     0.027328996
       2551.5850     0.045098560
       2552.4699     0.071598985
       2553.3547     0.019687941
       2554.2396   -0.0014650532
       2555.1245    -0.095396928
       2556.0093     -0.12134335
       2556.8942     0.014812324
       2557.7791    -0.019026673
       2558.6640     0.010133439
       2559.5488     0.034828839
       2560.4337     0.027935489
       2561.3186     0.081087804
       2562.2034     0.035014032
       2563.0883   -0.0048519067
       2563.9732    -0.013919598
       2564.8580    -0.029388221
       2565.7429     0.031279707
       2566.6278    0.0059001423
       2567.5127     0.055772633
       2568.3975   -0.0068612114
       2569.2824    -0.046409775
       2570.1673     0.011518777
       2571.0521    -0.015760689
       2571.9370    -0.013564940
       2572.8219     0.036449899
       2573.7067     0.013527314
       2574.5916    0.0087270501
       2575.4765   -0.0084985608
       2576.3614     0.025332564
       2577.2462    0.0059655519
       2578.1311   -0.0011827368
       2579.0160     0.015162195
       2579.9008     0.047491623
       2580.7857     0.052305981
       2581.6706     0.023353441
       2582.5555   -0.0082858103
       2583.4403    -0.011095298
       2584.3252     0.055646902
       2585.2101    0.0031589389
       2586.0949    -0.034313982
       2586.9798    -0.031645816
       2587.8647     0.011268979
       2588.7495     0.052198847
       2589.6344     0.043502824
       2590.5193     0.011756322
       2591.4042   -0.0065811080
       2592.2890    0.0070434298
       2593.1739     0.034328522
       2594.0588     0.038257766
       2594.9436    0.0097220239
       2595.8285    -0.038507339
       2596.7134   -0.0055617121
       2597.5982    0.0022227203
       2598.4831     0.014996590
       2599.3680     0.017653730
       2600.2529     0.046193243
       2601.1377     0.028256454
       2602.0226    -0.030749601
       2602.9075    -0.010457952
       2603.7923    -0.017678629
       2604.6772     0.043468634
       2605.5621     0.037882371
       2606.4470    -0.017529369
       2607.3318     0.031094100
       2608.2167     0.034976468
       2609.1016     0.021835841
       2609.9864    0.0064239625
       2610.8713     0.023346080
       2611.7562   -0.0087009728
       2612.6410     0.033530077
       2613.5259     0.024430593
       2614.4108     0.018678632
       2615.2957     0.043563134
       2616.1805    0.0065089759
       2617.0654    -0.046425230
       2617.9503     0.040976305
       2618.8351     0.031442754
       2619.7200    -0.024480010
       2620.6049   -0.0072463709
       2621.4898     0.033473998
       2622.3746     0.013529023
       2623.2595     0.080215654
       2624.1444     0.025904717
       2625.0292     0.023060294
       2625.9141     0.020791669
       2626.7990    -0.028465594
       2627.6838     0.025498996
       2628.5687    0.0037135861
       2629.4536     0.060689241
       2630.3385     0.020648480
       2631.2233    0.0036671233
       2632.1082    0.0088753222
       2632.9931     0.033614281
       2633.8779     0.019907618
       2634.7628     0.038549376
       2635.6477    -0.042241677
       2636.5325     0.018565035
       2637.4174     0.032943813
       2638.3023    -0.011630167
       2639.1872   -0.0012130438
       2640.0720   -0.0010828461
       2640.9569     0.020520566
       2641.8418     0.031754109
       2642.7266   -0.0037000317
       2643.6115    0.0059958018
       2644.4964   -0.0023728896
       2645.3813     0.026931490
       2646.2661     0.025611759
       2647.1510     0.050438447
       2648.0359     0.055291043
       2648.9207     0.040030923
       2649.8056     0.028155446
       2650.6905    -0.015599335
       2651.5753    0.0074677799
       2652.4602     0.012923510
       2653.3451     0.075688064
       2654.2300     0.058079005
       2655.1148    0.0099497089
       2655.9997     0.060102085
       2656.8846     0.040244662
       2657.7694     0.015160088
       2658.6543    0.0078903942
       2659.5392     0.015202673
       2660.4241     0.058945711
       2661.3089     0.044163717
       2662.1938     0.027111070
       2663.0787     0.028393080
       2663.9635     0.019655156
       2664.8484    -0.011289371
       2665.7333    0.0078180381
       2666.6181     0.011253189
       2667.5030     0.025526157
       2668.3879    -0.013898896
       2669.2728    -0.014753523
       2670.1576    -0.028287468
       2671.0425    -0.014857413
       2671.9274    0.0068646270
       2672.8122    -0.037274709
       2673.6971    0.0091419400
       2674.5820     0.017572863
       2675.4668    -0.024401458
       2676.3517     0.010412805
       2677.2366     0.024216306
       2678.1215     0.048422382
       2679.0063     0.012153943
       2679.8912     0.024708245
       2680.7761     0.015098039
       2681.6609     0.043013055
       2682.5458    -0.033519506
       2683.4307    0.0026193138
       2684.3156     0.036390465
       2685.2004     0.031705413
       2686.0853     0.028688082
       2686.9702     0.041297232
       2687.8550     0.025351252
       2688.7399   -0.0098977234
       2689.6248     0.015955574
       2690.5096     0.050211705
       2691.3945     0.035585797
       2692.2794     0.018224833
       2693.1643     0.031239261
       2694.0491     0.028486769
       2694.9340   -0.0071147701
       2695.8189     0.028967842
       2696.7037     0.024022936
       2697.5886    0.0013343688
       2698.4735    0.0014205204
       2699.3584   -0.0036735374
       2700.2432     0.052557604
       2701.1281     0.045934613
       2702.0130     0.040346091
       2702.8978     0.062937822
       2703.7827   -0.0061340704
       2704.6676    0.0050968850
       2705.5524    0.0091861119
       2706.4373     0.048636012
       2707.3222    0.0045936949
       2708.2071     0.051098724
       2709.0919     0.021556596
       2709.9768    -0.034549705
       2710.8617    0.0056428970
       2711.7465     0.012020191
       2712.6314     0.042705277
       2713.5163     0.014423711
       2714.4011     0.015412774
       2715.2860     0.046807358
       2716.1709     0.014942358
       2717.0558    -0.021382836
       2717.9406     0.023215410
       2718.8255     0.011116663
       2719.7104    0.0054658360
       2720.5952     0.044445492
       2721.4801   -0.0097452777
       2722.3650    0.0077358588
       2723.2499     0.033215975
       2724.1347    -0.013350459
       2725.0196     0.052154539
       2725.9045     0.081848748
       2726.7893     0.014583667
       2727.6742    -0.026626143
       2728.5591   0.00035972580
       2729.4439    0.0049420616
       2730.3288     0.014049961
       2731.2137     0.012138378
       2732.0986     0.042998149
       2732.9834     0.025134282
       2733.8683     0.018215530
       2734.7532     0.041267887
       2735.6380     0.037957032
       2736.5229     0.055346820
       2737.4078     0.032307169
       2738.2927     0.036428110
       2739.1775     0.012959764
       2740.0624     0.041045834
       2740.9473    -0.015005532
       2741.8321    0.0090714262
       2742.7170     0.011420638
       2743.6019    -0.026348008
       2744.4867    -0.013950624
       2745.3716    0.0045577105
       2746.2565     0.014334004
       2747.1414     0.014887079
       2748.0262     0.013198769
       2748.9111    -0.011940836
       2749.7960     0.020583587
       2750.6808     0.017017761
       2751.5657    -0.010743902
       2752.4506   -0.0054160602
       2753.3354    0.0064927733
       2754.2203   -0.0047657556
       2755.1052  -0.00058831049
       2755.9901   -0.0081482415
       2756.8749     0.034235374
       2757.7598     0.031605987
       2758.6447    -0.013238235
       2759.5295   -0.0043058355
       2760.4144     0.051561439
       2761.2993     0.032014530
       2762.1842     0.014786354
       2763.0690   -0.0030650794
       2763.9539    0.0077699448
       2764.8388   -0.0074123880
       2765.7236     0.013843316
       2766.6085   -0.0069408654
       2767.4934    0.0061545427
       2768.3782     0.011812692
       2769.2631     0.011851044
       2770.1480    0.0063833558
       2771.0329    -0.021173377
       2771.9177     0.012944960
       2772.8026     0.015302925
       2773.6875     0.040757542
       2774.5723     0.037718929
       2775.4572   -0.0034518681
       2776.3421   -0.0071635430
       2777.2270    0.0023031556
       2778.1118    0.0058443788
       2778.9967    -0.024927189
       2779.8816     0.013410407
       2780.7664    0.0057924050
       2781.6513    0.0021321210
       2782.5362   -0.0053893213
       2783.4210    -0.019201513
       2784.3059    0.0099334456
       2785.1908    -0.017468871
       2786.0757   -0.0066394802
       2786.9605     0.017449534
       2787.8454   0.00067320443
       2788.7303     0.015473075
       2789.6151     0.035279829
       2790.5000    -0.012189104
       2791.3849     0.010887088
       2792.2697     0.012367085
       2793.1546   -0.0094931747
       2794.0395    -0.019997447
       2794.9244     0.037048658
       2795.8092     0.038380103
       2796.6941     0.010861144
       2797.5790     0.018114456
       2798.4638     0.015356849
       2799.3487   0.00053490072
       2800.2336     0.060379955
       2801.1185    0.0075813764
       2802.0033     0.026897497
       2802.8882     0.042302518
       2803.7731     0.010246175
       2804.6579    0.0054218561
       2805.5428     0.028224477
       2806.4277    -0.010155048
       2807.3125     0.051964065
       2808.1974     0.047175437
       2809.0823     0.026232801
       2809.9672   -0.0041916691
       2810.8520     0.050261732
       2811.7369     0.032920799
       2812.6218     0.043290895
       2813.5066     0.032370218
       2814.3915     0.035015364
       2815.2764     0.014179249
       2816.1613     0.043187339
       2817.0461     0.053696682
       2817.9310     0.036497490
       2818.8159     0.033000050
       2819.7007     0.053290683
       2820.5856     0.041527258
       2821.4705     0.058662720
       2822.3553     0.025018424
       2823.2402    0.0094651588
       2824.1251     0.017632727
       2825.0100     0.033981340
       2825.8948     0.035894533
       2826.7797   -0.0035027049
       2827.6646     0.020967827
       2828.5494     0.020486094
       2829.4343     0.042379227
       2830.3192     0.022885219
       2831.2040     0.031222777
       2832.0889     0.051719901
       2832.9738     0.043506051
       2833.8587     0.015001713
       2834.7435     0.032436781
       2835.6284     0.015944520
       2836.5133     0.017272621
       2837.3981    -0.025937338
       2838.2830    -0.019492381
       2839.1679    0.0056502697
       2840.0528     0.018775091
       2840.9376   -0.0012405019
       2841.8225     0.017486290
       2842.7074    -0.014798418
       2843.5922     0.046173874
       2844.4771    0.0092221679
       2845.3620     0.031305059
       2846.2468     0.015311092
       2847.1317     0.016787460
       2848.0166     0.041331179
       2848.9015    0.0088859071
       2849.7863    0.0071380033
       2850.6712    -0.010587485
       2851.5561     0.017776289
       2852.4409    0.0068460471
       2853.3258     0.077994780
       2854.2107     0.093636377
       2855.0956     0.011390975
       2855.9804     0.017532656
       2856.8653     0.035269882
       2857.7502     0.061041331
       2858.6350     0.037522235
       2859.5199     0.013453365
       2860.4048  -0.00058682398
       2861.2896     0.042329701
       2862.1745     0.028221556
       2863.0594    -0.010993148
       2863.9443     0.029799469
       2864.8291     0.025667572
       2865.7140     0.051893756
       2866.5989     0.030891367
       2867.4837     0.028004270
       2868.3686     0.051710524
       2869.2535     0.051283050
       2870.1383     0.031636527
       2871.0232     0.035619105
       2871.9081     0.034332482
       2872.7930    0.0075692550
       2873.6778    -0.015356380
       2874.5627     0.013550128
       2875.4476     0.022297371
       2876.3324     0.037001526
       2877.2173     0.034728564
       2878.1022     0.045717042
       2878.9871     0.047784123
       2879.8719     0.029737315
       2880.7568     0.016425034
       2881.6417     0.025351259
       2882.5265     0.023263534
       2883.4114   -0.0065186463
       2884.2963     0.039481841
       2885.1811     0.079345164
       2886.0660     0.022915360
       2886.9509     0.038589552
       2887.8358     0.042964148
       2888.7206     0.058543411
       2889.6055     0.024047067
       2890.4904     0.039457371
       2891.3752     0.019458963
       2892.2601     0.015941023
       2893.1450     0.016101735
       2894.0299     0.034542423
       2894.9147     0.027894268
       2895.7996     0.019388326
       2896.6845     0.051286133
       2897.5693     0.028526437
       2898.4542     0.032875574
       2899.3391     0.038710232
       2900.2239  -0.00029028208
       2901.1088     0.062322128
       2901.9937     0.029939424
       2902.8786    -0.016348997
       2903.7634     0.018947537
       2904.6483     0.021170536
       2905.5332     0.042055831
       2906.4180     0.037657205
       2907.3029   0.00085666076
       2908.1878     0.026300409
       2909.0726     0.047498682
       2909.9575     0.064756683
       2910.8424     0.057750616
       2911.7273     0.038135749
       2912.6121     0.023548419
       2913.4970     0.025593816
       2914.3819   -0.0028437515
       2915.2667     0.034164965
       2916.1516     0.028778346
       2917.0365     0.062085305
       2917.9214     0.054251120
       2918.8062     0.035218562
       2919.6911     0.036502556
       2920.5760     0.039375002
       2921.4608     0.034317099
       2922.3457     0.035721356
       2923.2306     0.051050396
       2924.1154     0.072239352
       2925.0003     0.051029901
       2925.8852     0.016234329
       2926.7701     0.056107218
       2927.6549   0.00032241955
       2928.5398    0.0069859111
       2929.4247     0.026701991
       2930.3095     0.068489062
       2931.1944     0.045635139
       2932.0793     0.050345289
       2932.9642     0.026393861
       2933.8490     0.026767336
       2934.7339     0.046570073
       2935.6188     0.031812238
       2936.5036     0.039375797
       2937.3885     0.032525485
       2938.2734     0.044098080
       2939.1582     0.015762674
       2940.0431     0.024562053
       2940.9280     0.040732960
       2941.8129     0.019198973
       2942.6977     0.023213370
       2943.5826     0.030179630
       2944.4675     0.047740546
       2945.3523     0.031577507
       2946.2372     0.016523955
       2947.1221     0.017570879
       2948.0069     0.038573365
       2948.8918     0.061974091
       2949.7767     0.042737022
       2950.6616     0.038270760
       2951.5464     0.037642106
       2952.4313     0.033512763
       2953.3162     0.019189091
       2954.2010     0.040973608
       2955.0859     0.056527924
       2955.9708     0.057361491
       2956.8557     0.040469817
       2957.7405     0.017056314
       2958.6254     0.048750351
       2959.5103     0.018078877
       2960.3951     0.039319158
       2961.2800     0.047096389
       2962.1649     0.014636222
       2963.0497    0.0039661832
       2963.9346     0.018855752
       2964.8195     0.016182004
       2965.7044     0.035027285
       2966.5892     0.015803088
       2967.4741    0.0057982711
       2968.3590     0.018252679
       2969.2438     0.022112236
       2970.1287     0.059224947
       2971.0136     0.053754510
       2971.8985     0.049829681
       2972.7833     0.035447111
       2973.6682     0.049927114
       2974.5531     0.062812412
       2975.4379     0.056932261
       2976.3228     0.024339813
       2977.2077     0.043138512
       2978.0925    0.0087359700
       2978.9774     0.036575140
       2979.8623     0.050527700
       2980.7472     0.033519099
       2981.6320     0.040648725
       2982.5169     0.046701749
       2983.4018     0.026057790
       2984.2866    0.0065014976
       2985.1715     0.019008685
       2986.0564     0.039641902
       2986.9412     0.041771630
       2987.8261     0.010782057
       2988.7110     0.033374162
       2989.5959     0.018924375
       2990.4807     0.023477098
       2991.3656     0.078263296
       2992.2505     0.058128799
       2993.1353     0.020179827
       2994.0202     0.016506746
       2994.9051     0.024491011
       2995.7900     0.057314831
       2996.6748   -0.0059128269
       2997.5597     0.010030530
       2998.4446     0.063254964
       2999.3294     0.024179371
       3000.2143    0.0037281050
       3001.0992     0.063342287
       3001.9840     0.026553208
       3002.8689     0.049041304
       3003.7538     0.066426062
       3004.6387     0.055803700
       3005.5235     0.050549680
       3006.4084     0.031977750
       3007.2933     0.042537289
       3008.1781     0.040139791
       3009.0630     0.033360822
       3009.9479     0.039428772
       3010.8328     0.022446959
       3011.7176     0.032563731
       3012.6025     0.056337331
       3013.4874     0.050984985
       3014.3722     0.041780113
       3015.2571     0.045405946
       3016.1420     0.023887443
       3017.0268     0.037100405
       3017.9117     0.038412111
       3018.7966     0.032547026
       3019.6815     0.039277092
       3020.5663     0.043599370
       3021.4512     0.058109797
       3022.3361     0.034194650
       3023.2209     0.055886839
       3024.1058     0.071036865
       3024.9907     0.038093017
       3025.8755    0.0034588393
       3026.7604     0.055794338
       3027.6453     0.032735359
       3028.5302     0.034099874
       3029.4150     0.064030685
       3030.2999     0.058403017
       3031.1848     0.015241975
       3032.0696     0.028517493
       3032.9545     0.035005068
       3033.8394     0.011042079
       3034.7243     0.046634721
       3035.6091     0.058801551
       3036.4940     0.028417310
       3037.3789     0.047869587
       3038.2637     0.054033857
       3039.1486     0.052714352
       3040.0335     0.049526533
       3040.9183     0.030261200
       3041.8032     0.016805100
       3042.6881     0.051891203
       3043.5730     0.042373106
       3044.4578     0.039668475
       3045.3427     0.068917811
