# wavelength flux
       2626.8736    0.0070006246
       2627.7567     0.050505146
       2628.6398     0.029812331
       2629.5229     0.084391677
       2630.4060      0.13163220
       2631.2891     0.091842699
       2632.1722      0.10144685
       2633.0553     0.044217278
       2633.9384     0.072483013
       2634.8215      0.11356781
       2635.7046      0.12751464
       2636.5877      0.11772050
       2637.4708      0.12355433
       2638.3539     0.068090391
       2639.2370     0.061284434
       2640.1201     0.095109407
       2641.0031      0.10584103
       2641.8862      0.13450013
       2642.7693     0.054843187
       2643.6524      0.11414551
       2644.5355     0.064895048
       2645.4186     0.098470951
       2646.3017     0.097849502
       2647.1848      0.11369377
       2648.0679      0.13229518
       2648.9510     0.072773050
       2649.8341     0.088572733
       2650.7172     0.080568522
       2651.6003      0.10344846
       2652.4834      0.11233986
       2653.3665     0.085978116
       2654.2496     0.095417144
       2655.1327     0.066594887
       2656.0158     0.096832817
       2656.8989     0.072354093
       2657.7820     0.080847656
       2658.6651      0.18803992
       2659.5482     0.099607085
       2660.4313     0.054488982
       2661.3144     0.095464191
       2662.1975     0.073426709
       2663.0806     0.041007560
       2663.9637     0.026340437
       2664.8468     0.098369437
       2665.7299     0.056502785
       2666.6130     0.053978230
       2667.4961     0.086097629
       2668.3792     0.085014593
       2669.2623     0.050200763
       2670.1454     0.045342360
       2671.0285     0.091023342
       2671.9116     0.080248334
       2672.7947      0.10548564
       2673.6778     0.049843588
       2674.5609      0.12895740
       2675.4439      0.15550439
       2676.3270      0.10833873
       2677.2101     0.075791726
       2678.0932     0.079383649
       2678.9763     0.098419285
       2679.8594     0.082242443
       2680.7425     0.063843413
       2681.6256      0.12071236
       2682.5087     0.099691364
       2683.3918     0.062855948
       2684.2749     0.095520219
       2685.1580      0.10247973
       2686.0411     0.086546486
       2686.9242      0.11775311
       2687.8073     0.091337371
       2688.6904     0.066656536
       2689.5735     0.099941442
       2690.4566      0.14458777
       2691.3397      0.11954267
       2692.2228      0.12633205
       2693.1059     0.019852503
       2693.9890      0.11371729
       2694.8721     0.052771393
       2695.7552     0.047749333
       2696.6383     0.022025036
       2697.5214     0.071784180
       2698.4045     0.071223434
       2699.2876     0.058576194
       2700.1707     0.060777113
       2701.0538     0.097926925
       2701.9369     0.090507908
       2702.8200      0.13188535
       2703.7031     0.082409400
       2704.5862     0.098293402
       2705.4693     0.078624662
       2706.3524      0.12701582
       2707.2355      0.10771892
       2708.1186     0.084201114
       2709.0017      0.10776545
       2709.8848      0.15295086
       2710.7678      0.13546951
       2711.6509     0.082206636
       2712.5340     0.079054573
       2713.4171      0.13726865
       2714.3002     0.097939090
       2715.1833     0.085769292
       2716.0664      0.13126069
       2716.9495     0.057180088
       2717.8326     0.076354308
       2718.7157     0.054103503
       2719.5988      0.10716789
       2720.4819      0.13061714
       2721.3650     0.064372054
       2722.2481      0.13875684
       2723.1312      0.11576168
       2724.0143      0.11211401
       2724.8974     0.082316643
       2725.7805      0.11549663
       2726.6636     0.098682541
       2727.5467      0.11097613
       2728.4298     0.082943605
       2729.3129     0.077306750
       2730.1960     0.068289245
       2731.0791      0.11057576
       2731.9622      0.13801072
       2732.8453      0.10792269
       2733.7284      0.12312410
       2734.6115      0.11417251
       2735.4946     0.062042246
       2736.3777      0.12266124
       2737.2608     0.061234517
       2738.1439     0.060785052
       2739.0270      0.10788541
       2739.9101     0.089723531
       2740.7932     0.091182038
       2741.6763     0.092157372
       2742.5594     0.040985590
       2743.4425     0.079749701
       2744.3256      0.12347920
       2745.2086     0.057787489
       2746.0917     0.090666023
       2746.9748     0.097123709
       2747.8579     0.064789093
       2748.7410     0.057846750
       2749.6241     0.092314479
       2750.5072     0.093928039
       2751.3903     0.067553375
       2752.2734     0.087171860
       2753.1565      0.10525760
       2754.0396     0.063036846
       2754.9227     0.065857153
       2755.8058     0.064932036
       2756.6889      0.10863183
       2757.5720      0.11993237
       2758.4551     0.098161781
       2759.3382      0.10202744
       2760.2213     0.098801462
       2761.1044     0.073711001
       2761.9875     0.094181129
       2762.8706     0.063857996
       2763.7537     0.071586556
       2764.6368     0.069369434
       2765.5199     0.079855836
       2766.4030     0.050867412
       2767.2861     0.077725574
       2768.1692     0.038740516
       2769.0523     0.099274839
       2769.9354     0.082184252
       2770.8185     0.079056866
       2771.7016      0.10058972
       2772.5847     0.084446165
       2773.4678     0.088259319
       2774.3509     0.065363756
       2775.2340      0.10260750
       2776.1171     0.091284900
       2777.0002      0.10743459
       2777.8833     0.096692487
       2778.7664     0.072276494
       2779.6494     0.072577243
       2780.5325     0.061662323
       2781.4156     0.067072537
       2782.2987     0.051382172
       2783.1818      0.11300870
       2784.0649      0.10379199
       2784.9480     0.077227577
       2785.8311     0.041160848
       2786.7142     0.042523995
       2787.5973     0.011797748
       2788.4804     0.067380137
       2789.3635     0.093401885
       2790.2466     0.063397828
       2791.1297      0.10538302
       2792.0128     0.080000490
       2792.8959     0.098196509
       2793.7790      0.10549917
       2794.6621      0.11299093
       2795.5452      0.11442464
       2796.4283      0.11014204
       2797.3114      0.12517573
       2798.1945      0.13123105
       2799.0776      0.12162755
       2799.9607     0.096896861
       2800.8438     0.080505043
       2801.7269      0.12445915
       2802.6100     0.083414669
       2803.4931      0.11208752
       2804.3762     0.096768330
       2805.2593      0.10903887
       2806.1424      0.13346851
       2807.0255     0.096715148
       2807.9086      0.11661718
       2808.7917      0.14183848
       2809.6748      0.12144764
       2810.5579      0.12411183
       2811.4410      0.10267239
       2812.3241     0.081648439
       2813.2072     0.097631658
       2814.0903      0.13024670
       2814.9733      0.12926231
       2815.8564     0.097142376
       2816.7395      0.12126401
       2817.6226      0.11985590
       2818.5057      0.12240699
       2819.3888     0.087106913
       2820.2719      0.12575601
       2821.1550      0.10937885
       2822.0381     0.073399569
       2822.9212     0.096831598
       2823.8043      0.11104348
       2824.6874      0.12060232
       2825.5705     0.084354976
       2826.4536      0.13819119
       2827.3367      0.11000425
       2828.2198      0.11037347
       2829.1029      0.13647339
       2829.9860      0.12391784
       2830.8691      0.12346328
       2831.7522     0.094990520
       2832.6353      0.11951427
       2833.5184      0.11216696
       2834.4015      0.10699093
       2835.2846      0.14575494
       2836.1677      0.10192987
       2837.0508     0.093125057
       2837.9339      0.10834632
       2838.8170      0.11784132
       2839.7001     0.082545663
       2840.5832     0.072538129
       2841.4663     0.089537747
       2842.3494     0.094857652
       2843.2325      0.13057522
       2844.1156      0.11339714
       2844.9987      0.10944791
       2845.8818      0.11063273
       2846.7649      0.11800432
       2847.6480     0.098281919
       2848.5311      0.10831904
       2849.4141     0.096079303
       2850.2972      0.12194298
       2851.1803      0.10943881
       2852.0634      0.13180049
       2852.9465      0.10217855
       2853.8296     0.081924068
       2854.7127      0.10455540
       2855.5958      0.12061739
       2856.4789      0.10235719
       2857.3620      0.13180245
       2858.2451      0.13798589
       2859.1282      0.10814838
       2860.0113      0.12124794
       2860.8944      0.10878949
       2861.7775     0.055491858
       2862.6606      0.11203377
       2863.5437     0.090576529
       2864.4268     0.097845216
       2865.3099      0.12030173
       2866.1930      0.13393910
       2867.0761     0.079021120
       2867.9592      0.12388840
       2868.8423     0.093863455
       2869.7254      0.13801315
       2870.6085      0.11761626
       2871.4916      0.12131327
       2872.3747      0.11213897
       2873.2578      0.12334272
       2874.1409      0.12445733
       2875.0240      0.12309300
       2875.9071      0.12119562
       2876.7902      0.12444706
       2877.6733     0.093732163
       2878.5564      0.12916478
       2879.4395      0.11352803
       2880.3226      0.11258946
       2881.2057      0.11335769
       2882.0888     0.090385135
       2882.9719      0.12219935
       2883.8549      0.14120157
       2884.7380      0.11642425
       2885.6211      0.12670549
       2886.5042      0.10519394
       2887.3873      0.12928729
       2888.2704      0.11137180
       2889.1535      0.13793495
       2890.0366      0.14728207
       2890.9197     0.092951242
       2891.8028     0.098729159
       2892.6859      0.12302756
       2893.5690      0.11872968
       2894.4521      0.13818043
       2895.3352     0.088320252
       2896.2183      0.13321218
       2897.1014      0.12538669
       2897.9845      0.11643239
       2898.8676      0.11456994
       2899.7507      0.11805138
       2900.6338      0.11503051
       2901.5169     0.098744221
       2902.4000     0.083612657
       2903.2831     0.079438941
       2904.1662      0.11571944
       2905.0493      0.14796238
       2905.9324      0.12209326
       2906.8155      0.13800629
       2907.6986     0.093243194
       2908.5817      0.13447378
       2909.4648      0.13115623
       2910.3479      0.11920819
       2911.2310      0.12416828
       2912.1141      0.10307020
       2912.9972      0.12894696
       2913.8803      0.15222848
       2914.7634      0.10980122
       2915.6465      0.13445293
       2916.5296      0.10164686
       2917.4127      0.12254917
       2918.2958      0.10792433
       2919.1788      0.12264624
       2920.0619      0.10065249
       2920.9450      0.10670805
       2921.8281      0.10204388
       2922.7112      0.13147010
       2923.5943      0.13561022
       2924.4774      0.10032625
       2925.3605      0.13390092
       2926.2436      0.12697970
       2927.1267      0.14920607
       2928.0098      0.11698596
       2928.8929      0.12255611
       2929.7760      0.16104964
       2930.6591      0.13699958
       2931.5422      0.13583792
       2932.4253      0.10719750
       2933.3084      0.11571278
       2934.1915      0.14340575
       2935.0746      0.13868478
       2935.9577      0.11880780
       2936.8408      0.13048520
       2937.7239      0.11352134
       2938.6070      0.13662023
       2939.4901      0.10970091
       2940.3732      0.13434053
       2941.2563      0.13271188
       2942.1394     0.088143182
       2943.0225      0.11923073
       2943.9056      0.10493317
       2944.7887      0.13143759
       2945.6718      0.13293079
       2946.5549      0.11568406
       2947.4380      0.11909722
       2948.3211      0.10393645
       2949.2042      0.14488449
       2950.0873      0.12516088
       2950.9704      0.11599360
       2951.8535      0.14547494
       2952.7366      0.14628271
       2953.6196      0.11488609
       2954.5027      0.12627021
       2955.3858      0.14399678
       2956.2689      0.12925169
       2957.1520      0.12519808
       2958.0351      0.15804098
       2958.9182      0.13779981
       2959.8013      0.14393045
       2960.6844      0.12657799
       2961.5675      0.12726400
       2962.4506      0.11678887
       2963.3337      0.14085557
       2964.2168      0.14383053
       2965.0999      0.13026487
       2965.9830      0.14717495
       2966.8661      0.10291087
       2967.7492      0.13034620
       2968.6323     0.099074960
       2969.5154      0.16669197
       2970.3985      0.12904794
       2971.2816      0.10921853
       2972.1647      0.15533544
       2973.0478      0.15438156
       2973.9309      0.16742162
       2974.8140      0.15750748
       2975.6971      0.13883748
       2976.5802      0.12372859
       2977.4633     0.099729270
       2978.3464      0.14756915
       2979.2295      0.13669554
       2980.1126     0.092516359
       2980.9957      0.13696247
       2981.8788      0.11869277
       2982.7619      0.14864648
       2983.6450      0.14676383
       2984.5281      0.14959886
       2985.4112      0.16164212
       2986.2943      0.16636145
       2987.1774      0.12958635
       2988.0604      0.12405482
       2988.9435      0.10402225
       2989.8266      0.11472236
       2990.7097      0.14030010
       2991.5928      0.16355233
       2992.4759      0.14996592
       2993.3590      0.14845529
       2994.2421      0.16993224
       2995.1252      0.13530356
       2996.0083      0.14691860
       2996.8914      0.12835626
       2997.7745      0.11627401
       2998.6576      0.13934799
       2999.5407      0.15724815
       3000.4238      0.14416159
       3001.3069      0.12546185
       3002.1900      0.14207305
       3003.0731      0.14669784
       3003.9562      0.10649136
       3004.8393      0.10246925
       3005.7224      0.12791087
       3006.6055      0.15092999
       3007.4886      0.17803387
       3008.3717      0.15098132
       3009.2548      0.13275551
       3010.1379      0.12714499
       3011.0210      0.12677554
       3011.9041      0.12270046
       3012.7872      0.15597486
       3013.6703      0.18472847
       3014.5534      0.16303120
       3015.4365      0.13841030
       3016.3196      0.17131840
       3017.2027      0.13830993
       3018.0858      0.13020462
       3018.9689      0.13062483
       3019.8520      0.15775538
       3020.7351      0.12988055
       3021.6182      0.16296629
       3022.5013      0.15003300
       3023.3843      0.15412629
       3024.2674      0.14381799
       3025.1505      0.14486569
       3026.0336      0.16617211
       3026.9167      0.14050120
       3027.7998      0.11573277
       3028.6829      0.16876681
       3029.5660      0.16140236
       3030.4491      0.15958743
       3031.3322      0.14829703
       3032.2153      0.13603982
       3033.0984      0.18357472
       3033.9815      0.15136124
       3034.8646      0.16417547
       3035.7477      0.16463879
       3036.6308      0.17670249
       3037.5139      0.14553007
       3038.3970      0.12273210
       3039.2801      0.15449378
       3040.1632      0.16673606
       3041.0463      0.13376877
       3041.9294      0.13179904
       3042.8125      0.15636569
       3043.6956      0.15282042
       3044.5787      0.16144215
       3045.4618      0.16896398
       3046.3449      0.15190164
       3047.2280      0.14646598
       3048.1111      0.15634148
       3048.9942      0.18772221
       3049.8773      0.16357646
       3050.7604      0.15729386
       3051.6435      0.16680998
       3052.5266      0.13148385
       3053.4097      0.14868177
       3054.2928      0.14320110
       3055.1759      0.14331733
       3056.0590      0.13747393
       3056.9421      0.13771332
       3057.8251      0.18215881
       3058.7082      0.16430776
       3059.5913      0.14098481
       3060.4744      0.14953885
       3061.3575      0.13096369
       3062.2406      0.14526882
       3063.1237      0.15389558
       3064.0068      0.15551280
       3064.8899      0.16227005
       3065.7730      0.17774335
       3066.6561      0.16600136
       3067.5392      0.14504697
       3068.4223      0.15496812
       3069.3054      0.13779891
       3070.1885      0.14619357
       3071.0716      0.14720048
       3071.9547      0.12675899
       3072.8378      0.14538888
       3073.7209      0.12998227
       3074.6040      0.14137266
       3075.4871      0.15209123
       3076.3702      0.15919008
       3077.2533      0.18906880
       3078.1364      0.16362451
       3079.0195      0.15426099
       3079.9026      0.15245415
       3080.7857      0.15782564
       3081.6688      0.18163466
       3082.5519      0.15649911
       3083.4350      0.13815652
       3084.3181      0.15970452
       3085.2012      0.13186909
       3086.0843      0.15478590
       3086.9674      0.14458513
       3087.8505      0.16914674
       3088.7336      0.13019195
       3089.6167      0.13586067
       3090.4998      0.15323561
       3091.3829      0.14296766
       3092.2659      0.15850918
       3093.1490      0.14989926
       3094.0321      0.14621559
       3094.9152      0.14923846
       3095.7983      0.12165827
       3096.6814      0.13878959
       3097.5645      0.13969187
       3098.4476      0.14917651
       3099.3307      0.13232735
       3100.2138      0.13627371
       3101.0969      0.17617320
       3101.9800      0.15975750
       3102.8631      0.14683348
       3103.7462      0.15522311
       3104.6293      0.16095035
       3105.5124      0.15057004
       3106.3955      0.15402207
       3107.2786      0.16053466
       3108.1617      0.17626468
       3109.0448      0.14908107
       3109.9279      0.11695837
       3110.8110      0.19119201
       3111.6941      0.17261561
       3112.5772      0.15456673
       3113.4603      0.14448376
       3114.3434      0.14797406
       3115.2265      0.14974354
       3116.1096      0.13692276
       3116.9927      0.15318594
       3117.8758      0.17303188
       3118.7589      0.14937514
       3119.6420      0.12292572
       3120.5251      0.16388779
       3121.4082      0.16217247
       3122.2913      0.16527266
       3123.1744      0.14223757
       3124.0575      0.15069417
       3124.9406      0.15573050
       3125.8237      0.15921375
       3126.7068      0.13806384
       3127.5898      0.13391271
       3128.4729      0.11923421
       3129.3560      0.11445447
       3130.2391      0.16127527
       3131.1222      0.14463042
       3132.0053      0.15278000
       3132.8884      0.15293538
       3133.7715      0.16429256
       3134.6546      0.14951807
       3135.5377      0.16502092
       3136.4208      0.19233227
       3137.3039      0.17602130
       3138.1870      0.16034185
       3139.0701      0.14462963
       3139.9532      0.15104383
       3140.8363      0.14035667
       3141.7194      0.15115643
       3142.6025      0.15407983
       3143.4856      0.14097326
       3144.3687      0.18178805
       3145.2518      0.16771129
       3146.1349      0.15832817
       3147.0180      0.14206338
       3147.9011      0.16122254
       3148.7842      0.13174930
       3149.6673      0.15664759
       3150.5504      0.13323471
       3151.4335      0.13481583
       3152.3166      0.12928633
       3153.1997      0.16099518
       3154.0828      0.13088542
       3154.9659      0.12658418
       3155.8490      0.14972255
       3156.7321      0.16493255
       3157.6152      0.12820423
       3158.4983      0.15925410
       3159.3814      0.13251640
       3160.2645      0.13884115
