# wavelength flux
       2559.0700    0.0077049987
       2559.9599     0.093857707
       2560.8498     0.033286179
       2561.7398     0.063394634
       2562.6297   -0.0016942791
       2563.5196     0.021302142
       2564.4095    -0.014337248
       2565.2995     0.040354906
       2566.1894     0.048603670
       2567.0793     0.070850799
       2567.9693      0.12794293
       2568.8592      0.12365757
       2569.7491     0.051507068
       2570.6391     0.059247576
       2571.5290     0.075096097
       2572.4189     0.059421296
       2573.3088     0.021487369
       2574.1988     0.063570800
       2575.0887     0.079787558
       2575.9786     0.080700067
       2576.8686     0.040961932
       2577.7585     0.057975172
       2578.6484     0.054544771
       2579.5383     0.037887756
       2580.4283     0.031031380
       2581.3182     0.095157260
       2582.2081     0.049299185
       2583.0981     0.020032684
       2583.9880     0.062403585
       2584.8779     0.035721740
       2585.7678     0.026202437
       2586.6578    -0.013979263
       2587.5477    -0.010659476
       2588.4376     0.053856891
       2589.3276     0.062540936
       2590.2175     0.088058549
       2591.1074     0.080175336
       2591.9974     0.077866522
       2592.8873      0.12080669
       2593.7772      0.12966628
       2594.6671     0.097269164
       2595.5571     0.055243636
       2596.4470     0.065933166
       2597.3369      0.10828768
       2598.2269     0.068926681
       2599.1168    0.0051483181
       2600.0067     0.026414426
       2600.8966     0.044778307
       2601.7866     0.019185200
       2602.6765     0.052451635
       2603.5664     0.074066872
       2604.4564     0.082795777
       2605.3463     0.051088380
       2606.2362     0.049361313
       2607.1262    0.0094331104
       2608.0161      0.10403426
       2608.9060     0.020302830
       2609.7959     0.025653480
       2610.6859     0.037312133
       2611.5758     0.051189886
       2612.4657     0.065172981
       2613.3557     0.026974711
       2614.2456     0.076954135
       2615.1355     0.048384330
       2616.0254     0.081398420
       2616.9154      0.10161353
       2617.8053     0.075596291
       2618.6952     0.059400708
       2619.5852     0.078231197
       2620.4751     0.087389003
       2621.3650     0.097330909
       2622.2550      0.10192057
       2623.1449     0.078240669
       2624.0348     0.050579441
       2624.9247     0.069902722
       2625.8147     0.037374810
       2626.7046   -0.0063024213
       2627.5945     0.049111455
       2628.4845     0.076407124
       2629.3744     0.065015644
       2630.2643     0.067197487
       2631.1542     0.083341312
       2632.0442     0.074633241
       2632.9341     0.062370851
       2633.8240     0.027785430
       2634.7140     0.057925937
       2635.6039     0.084838464
       2636.4938     0.082766965
       2637.3837      0.10322919
       2638.2737     0.089146096
       2639.1636     0.073849157
       2640.0535     0.040240551
       2640.9435     0.078351628
       2641.8334     0.067320200
       2642.7233     0.099866473
       2643.6133     0.076862775
       2644.5032     0.081055903
       2645.3931     0.085104743
       2646.2830      0.10959398
       2647.1730     0.070463738
       2648.0629     0.094789244
       2648.9528     0.084219416
       2649.8428     0.058924223
       2650.7327     0.083564393
       2651.6226      0.12006240
       2652.5125      0.11977531
       2653.4025      0.10226899
       2654.2924     0.072015057
       2655.1823     0.056807315
       2656.0723     0.043299774
       2656.9622     0.037289172
       2657.8521     0.032417890
       2658.7421     0.067420390
       2659.6320     0.055202961
       2660.5219     0.059665605
       2661.4118     0.085902408
       2662.3018     0.079252696
       2663.1917     0.092961552
       2664.0816     0.073707076
       2664.9716     0.053555221
       2665.8615     0.093490141
       2666.7514      0.10929512
       2667.6413     0.064522251
       2668.5313     0.079282811
       2669.4212     0.056526466
       2670.3111     0.048264670
       2671.2011     0.077247392
       2672.0910      0.10550200
       2672.9809     0.084760916
       2673.8709     0.074855708
       2674.7608     0.041228771
       2675.6507     0.040555982
       2676.5406     0.048545943
       2677.4306     0.093142414
       2678.3205     0.072513476
       2679.2104     0.051635507
       2680.1004     0.058021668
       2680.9903     0.063387252
       2681.8802     0.070459249
       2682.7701     0.096854667
       2683.6601     0.085634745
       2684.5500     0.079584941
       2685.4399     0.061253792
       2686.3299     0.090384659
       2687.2198     0.092509638
       2688.1097     0.051331316
       2688.9996     0.048188713
       2689.8896     0.068670310
       2690.7795     0.081878515
       2691.6694     0.046443642
       2692.5594      0.12791861
       2693.4493     0.078046421
       2694.3392     0.071224990
       2695.2292     0.072158480
       2696.1191     0.094488834
       2697.0090     0.063358551
       2697.8989     0.086969768
       2698.7889      0.11513892
       2699.6788     0.091586511
       2700.5687     0.058232012
       2701.4587      0.12221953
       2702.3486     0.099417934
       2703.2385     0.090768467
       2704.1284     0.070034345
       2705.0184     0.090925238
       2705.9083     0.093450657
       2706.7982     0.092315992
       2707.6882     0.051932343
       2708.5781     0.081101822
       2709.4680      0.11248688
       2710.3580      0.10402905
       2711.2479     0.088668534
       2712.1378      0.13142048
       2713.0277      0.13426027
       2713.9177     0.077883864
       2714.8076      0.10867719
       2715.6975      0.11352160
       2716.5875     0.092940195
       2717.4774     0.063668410
       2718.3673     0.076221727
       2719.2572      0.11028771
       2720.1472     0.093080568
       2721.0371     0.065867101
       2721.9270     0.089974901
       2722.8170     0.095322316
       2723.7069     0.073075141
       2724.5968     0.051735600
       2725.4868     0.059319777
       2726.3767     0.087788848
       2727.2666     0.089137292
       2728.1565     0.084656715
       2729.0465     0.098811042
       2729.9364     0.061170338
       2730.8263     0.072281074
       2731.7163     0.085905849
       2732.6062     0.084758206
       2733.4961     0.075891677
       2734.3860     0.081984331
       2735.2760     0.092816709
       2736.1659     0.092090350
       2737.0558     0.092288177
       2737.9458     0.083303200
       2738.8357     0.054717605
       2739.7256     0.081508124
       2740.6155     0.081159979
       2741.5055     0.097815464
       2742.3954     0.081450295
       2743.2853     0.080599174
       2744.1753     0.092220732
       2745.0652     0.059734763
       2745.9551     0.096374878
       2746.8451     0.098096829
       2747.7350     0.097426937
       2748.6249     0.091183424
       2749.5148     0.082311153
       2750.4048     0.057281053
       2751.2947     0.088226980
       2752.1846      0.11920697
       2753.0746     0.088037800
       2753.9645     0.084487423
       2754.8544      0.11243308
       2755.7443     0.089240206
       2756.6343     0.093096258
       2757.5242     0.096675225
       2758.4141     0.072914141
       2759.3041     0.050318448
       2760.1940     0.057621009
       2761.0839     0.065827858
       2761.9739     0.031197581
       2762.8638     0.045182482
       2763.7537     0.069738740
       2764.6436     0.055508171
       2765.5336     0.041291224
       2766.4235     0.056021979
       2767.3134     0.091734813
       2768.2034      0.11310241
       2769.0933     0.074566801
       2769.9832     0.066458679
       2770.8731     0.056658490
       2771.7631     0.067565488
       2772.6530     0.091730697
       2773.5429     0.094863545
       2774.4329     0.077194399
       2775.3228     0.076556794
       2776.2127     0.075449052
       2777.1026     0.075702145
       2777.9926     0.088672319
       2778.8825     0.078454413
       2779.7724     0.071385507
       2780.6624     0.077250334
       2781.5523     0.047930958
       2782.4422     0.037862164
       2783.3322     0.066702680
       2784.2221     0.039681761
       2785.1120     0.051993849
       2786.0019     0.091926686
       2786.8919     0.073437718
       2787.7818     0.068802591
       2788.6717     0.062966719
       2789.5617     0.074467199
       2790.4516     0.093095512
       2791.3415      0.10602828
       2792.2314     0.080997501
       2793.1214     0.073841731
       2794.0113     0.094852939
       2794.9012      0.10852467
       2795.7912     0.069247966
       2796.6811     0.071983637
       2797.5710     0.089226872
       2798.4610     0.088206748
       2799.3509      0.10779726
       2800.2408      0.10775891
       2801.1307     0.096986321
       2802.0207     0.064791669
       2802.9106     0.077945157
       2803.8005     0.094419983
       2804.6905     0.088562562
       2805.5804     0.090745785
       2806.4703     0.080649349
       2807.3602     0.082961715
       2808.2502     0.083589061
       2809.1401     0.069768582
       2810.0300     0.087955817
       2810.9200      0.10745006
       2811.8099     0.099829844
       2812.6998      0.10665558
       2813.5898      0.10583120
       2814.4797      0.10853005
       2815.3696      0.11941028
       2816.2595      0.11367218
       2817.1495     0.093119005
       2818.0394      0.11065538
       2818.9293     0.099597934
       2819.8193      0.13215315
       2820.7092      0.12284472
       2821.5991      0.12733039
       2822.4890     0.095565515
       2823.3790      0.11346613
       2824.2689      0.11845565
       2825.1588      0.10358607
       2826.0488     0.097772231
       2826.9387      0.10613790
       2827.8286     0.086257138
       2828.7185     0.074961741
       2829.6085     0.067205308
       2830.4984     0.075879898
       2831.3883     0.090317586
       2832.2783     0.085048612
       2833.1682     0.092669533
       2834.0581     0.091188868
       2834.9481     0.095747053
       2835.8380     0.095847480
       2836.7279     0.095178119
       2837.6178      0.10583992
       2838.5078     0.077419794
       2839.3977     0.072346737
       2840.2876     0.095770837
       2841.1776     0.080667121
       2842.0675     0.084337051
       2842.9574     0.065855766
       2843.8473     0.089459290
       2844.7373     0.094086073
       2845.6272     0.093461129
       2846.5171     0.094617265
       2847.4071     0.065706941
       2848.2970     0.078316865
       2849.1869      0.10882846
       2850.0769     0.090236104
       2850.9668     0.077304801
       2851.8567     0.082275646
       2852.7466     0.090661484
       2853.6366      0.12338422
       2854.5265     0.084983729
       2855.4164     0.074512536
       2856.3064     0.068996141
       2857.1963     0.078814641
       2858.0862     0.088501794
       2858.9761     0.087384734
       2859.8661     0.081697391
       2860.7560     0.083229398
       2861.6459     0.096680096
       2862.5359      0.11320323
       2863.4258      0.12900133
       2864.3157      0.13363786
       2865.2057      0.10720009
       2866.0956      0.10073238
       2866.9855     0.091561651
       2867.8754     0.096230466
       2868.7654      0.12353250
       2869.6553      0.13193560
       2870.5452      0.11343802
       2871.4352     0.083602069
       2872.3251     0.097410548
       2873.2150      0.10213011
       2874.1049      0.11338053
       2874.9949      0.10236825
       2875.8848     0.097970060
       2876.7747     0.098992257
       2877.6647     0.092569054
       2878.5546     0.088281981
       2879.4445     0.074375871
       2880.3344     0.090504035
       2881.2244     0.085521555
       2882.1143     0.069306554
       2883.0042     0.065303528
       2883.8942     0.091829969
       2884.7841      0.11088223
       2885.6740     0.088696294
       2886.5640     0.090812533
       2887.4539     0.099627570
       2888.3438     0.082728791
       2889.2337      0.10478426
       2890.1237      0.11604005
       2891.0136     0.077293177
       2891.9035      0.11252540
       2892.7935      0.10228370
       2893.6834     0.091944529
       2894.5733     0.082058136
       2895.4632     0.093621281
       2896.3532     0.093017752
       2897.2431      0.11000568
       2898.1330      0.10470158
       2899.0230      0.11124300
       2899.9129      0.12987456
       2900.8028     0.097944994
       2901.6928     0.098167927
       2902.5827     0.094329695
       2903.4726     0.094287951
       2904.3625      0.10443889
       2905.2525     0.076924877
       2906.1424     0.084737505
       2907.0323     0.091670299
       2907.9223      0.10518059
       2908.8122     0.086587106
       2909.7021     0.077567399
       2910.5920     0.084210879
       2911.4820     0.069852635
       2912.3719      0.10519730
       2913.2618      0.10328017
       2914.1518      0.10187137
       2915.0417      0.10709068
       2915.9316      0.11078615
       2916.8216     0.094438439
       2917.7115     0.073656783
       2918.6014     0.073432085
       2919.4913     0.080371445
       2920.3813     0.088252136
       2921.2712     0.088902401
       2922.1611     0.085045971
       2923.0511     0.094943534
       2923.9410     0.086662878
       2924.8309     0.092599771
       2925.7208      0.10370210
       2926.6108      0.11192166
       2927.5007      0.11844575
       2928.3906      0.12365701
       2929.2806     0.077863628
       2930.1705     0.093906776
       2931.0604     0.091582183
       2931.9503     0.096286268
       2932.8403      0.12313090
       2933.7302      0.14480808
       2934.6201      0.15164962
       2935.5101      0.10910340
       2936.4000     0.098996347
       2937.2899      0.12105233
       2938.1799      0.12348640
       2939.0698      0.12100177
       2939.9597      0.11927397
       2940.8496      0.11523886
       2941.7396      0.11304024
       2942.6295      0.10883232
       2943.5194      0.10834207
       2944.4094      0.11092228
       2945.2993      0.12820833
       2946.1892      0.12684283
       2947.0791      0.11458236
       2947.9691      0.10557012
       2948.8590     0.095709554
       2949.7489      0.10248797
       2950.6389     0.099362800
       2951.5288      0.10827938
       2952.4187      0.11536550
       2953.3087     0.099964864
       2954.1986     0.095298987
       2955.0885      0.10654401
       2955.9784      0.10600506
       2956.8684      0.11659447
       2957.7583     0.088212328
       2958.6482      0.10128299
       2959.5382      0.11312489
       2960.4281      0.10193884
       2961.3180      0.10961463
       2962.2079      0.10473446
       2963.0979     0.096554540
       2963.9878      0.12550616
       2964.8777      0.10097637
       2965.7677      0.11067983
       2966.6576      0.11395096
       2967.5475      0.12758791
       2968.4374      0.11097453
       2969.3274      0.12870161
       2970.2173      0.13736598
       2971.1072      0.11932629
       2971.9972      0.15001463
       2972.8871      0.13690658
       2973.7770      0.12172686
       2974.6670      0.11543695
       2975.5569      0.10566671
       2976.4468      0.10485942
       2977.3367      0.10053243
       2978.2267      0.10509317
       2979.1166      0.10038941
       2980.0065      0.12034526
       2980.8965     0.096714351
       2981.7864      0.10960086
       2982.6763     0.096729588
       2983.5662      0.13467559
       2984.4562      0.13885557
       2985.3461      0.12357158
       2986.2360      0.14882860
       2987.1260      0.13886884
       2988.0159      0.12891917
       2988.9058      0.11435999
       2989.7958      0.12422012
       2990.6857      0.14678234
       2991.5756      0.12993188
       2992.4655      0.11142241
       2993.3555      0.10903151
       2994.2454      0.15586786
       2995.1353      0.14430361
       2996.0253      0.11654740
       2996.9152      0.11297799
       2997.8051      0.13524750
       2998.6950      0.13577814
       2999.5850      0.17183971
       3000.4749      0.13805663
       3001.3648      0.13963083
       3002.2548      0.12097295
       3003.1447      0.14052795
       3004.0346      0.13783651
       3004.9246      0.13182813
       3005.8145      0.13021474
       3006.7044      0.12301127
       3007.5943      0.12512902
       3008.4843      0.14264401
       3009.3742      0.13775121
       3010.2641      0.13039612
       3011.1541      0.15675662
       3012.0440      0.14802354
       3012.9339      0.15979295
       3013.8238      0.12035007
       3014.7138      0.12751480
       3015.6037      0.11739967
       3016.4936      0.15060537
       3017.3836      0.15175540
       3018.2735      0.14719296
       3019.1634      0.12229496
       3020.0533      0.14995964
       3020.9433      0.15634232
       3021.8332      0.13411385
       3022.7231      0.14079430
       3023.6131      0.14371132
       3024.5030      0.13327430
       3025.3929      0.14418231
       3026.2829      0.15591850
       3027.1728      0.13072122
       3028.0627      0.13100324
       3028.9526      0.13731831
       3029.8426      0.13332485
       3030.7325      0.13886848
       3031.6224      0.14682175
       3032.5124      0.16751177
       3033.4023      0.13184991
       3034.2922      0.13756469
       3035.1821      0.15161293
       3036.0721      0.11987421
       3036.9620      0.13027156
       3037.8519      0.11837146
       3038.7419      0.12971991
       3039.6318      0.12311678
       3040.5217      0.13932489
       3041.4117      0.12094076
       3042.3016      0.14085073
       3043.1915      0.14435039
       3044.0814      0.15369919
       3044.9714      0.14080776
       3045.8613      0.12958897
       3046.7512      0.13963657
       3047.6412      0.13607934
       3048.5311      0.15786300
       3049.4210      0.14541285
       3050.3109      0.13876311
       3051.2009      0.13360421
       3052.0908      0.12269615
       3052.9807      0.13256370
       3053.8707      0.13863388
       3054.7606      0.13712205
       3055.6505      0.12297373
       3056.5405      0.13218000
       3057.4304      0.12522432
       3058.3203      0.10804188
       3059.2102      0.10534393
       3060.1002      0.11107595
       3060.9901      0.15734133
       3061.8800      0.10720602
       3062.7700      0.14410031
       3063.6599      0.14621824
       3064.5498      0.13581195
       3065.4397      0.14159796
       3066.3297      0.12665341
       3067.2196      0.12865389
       3068.1095      0.14747719
       3068.9995      0.10907546
       3069.8894      0.13078487
       3070.7793      0.14343633
       3071.6692      0.14446422
       3072.5592      0.11790905
       3073.4491      0.16098262
       3074.3390      0.14200088
       3075.2290      0.15134111
       3076.1189      0.14580554
       3077.0088      0.13033650
       3077.8988      0.13730914
       3078.7887      0.14243582
       3079.6786      0.13630416
       3080.5685      0.15117074
       3081.4585      0.15999484
       3082.3484      0.17070956
       3083.2383      0.15759758
       3084.1283      0.13325626
       3085.0182      0.14105041
       3085.9081      0.13796520
       3086.7980      0.12629825
       3087.6880      0.13789842
       3088.5779      0.14696211
       3089.4678      0.14423875
       3090.3578      0.14587322
       3091.2477      0.14333531
       3092.1376      0.11888183
       3093.0276      0.11861051
       3093.9175      0.13104049
       3094.8074      0.13908579
       3095.6973      0.12426985
       3096.5873      0.12659567
