# wavelength flux
       2587.2581     -0.10547602
       2588.1508   -0.0021269076
       2589.0435    -0.023916133
       2589.9362     0.054758883
       2590.8289     0.097089807
       2591.7217     0.014032236
       2592.6144     0.077866736
       2593.5071     0.052967042
       2594.3998     0.081325180
       2595.2925     0.042805149
       2596.1852     0.049832942
       2597.0780     0.025724641
       2597.9707   -0.0022507100
       2598.8634    -0.011283790
       2599.7561     0.041300212
       2600.6488     0.039876336
       2601.5416     0.035594498
       2602.4343     0.050018403
       2603.3270     0.093491091
       2604.2197     0.078185499
       2605.1124      0.11324958
       2606.0051     0.081915978
       2606.8979     0.078115606
       2607.7906     0.059224309
       2608.6833     0.091250323
       2609.5760     0.067646518
       2610.4687     0.021424302
       2611.3615     0.079017468
       2612.2542      0.13390023
       2613.1469     0.084850305
       2614.0396      0.10339531
       2614.9323      0.12290414
       2615.8250     0.051381409
       2616.7178     0.040669495
       2617.6105     0.011356902
       2618.5032    -0.020076590
       2619.3959   -0.0088407041
       2620.2886     0.088751373
       2621.1814      0.10715352
       2622.0741      0.11445410
       2622.9668     0.043390866
       2623.8595     0.032035747
       2624.7522     0.040371486
       2625.6449     0.085742446
       2626.5377     0.055881149
       2627.4304     0.062031983
       2628.3231     0.054644551
       2629.2158     0.043287731
       2630.1085     0.027996501
       2631.0013     0.028397371
       2631.8940     0.070152780
       2632.7867     0.059025589
       2633.6794     0.080876203
       2634.5721     0.061078219
       2635.4648     0.036012154
       2636.3576     0.020883906
       2637.2503     0.078358467
       2638.1430     0.033750953
       2639.0357     0.049421138
       2639.9284     0.042285073
       2640.8212     0.015602133
       2641.7139     0.022595608
       2642.6066      0.13799776
       2643.4993     0.042269867
       2644.3920    0.0051606555
       2645.2847     0.038454466
       2646.1775     0.076233630
       2647.0702     0.032462764
       2647.9629     0.035349546
       2648.8556     0.027218870
       2649.7483     0.054752084
       2650.6411     0.075234633
       2651.5338     0.051688645
       2652.4265     0.081520543
       2653.3192     0.099966781
       2654.2119     0.094240176
       2655.1046     0.072393262
       2655.9974      0.10837679
       2656.8901     0.054598273
       2657.7828     0.093942172
       2658.6755    0.0090610209
       2659.5682     0.028966425
       2660.4610     0.091154418
       2661.3537      0.12896647
       2662.2464     0.078539171
       2663.1391     0.041998525
       2664.0318     0.058409348
       2664.9245     0.069343205
       2665.8173     0.072027307
       2666.7100     0.042114888
       2667.6027     0.018286838
       2668.4954      0.12399742
       2669.3881      0.11054374
       2670.2809      0.13683414
       2671.1736      0.12350406
       2672.0663     0.039180042
       2672.9590   -0.0034053223
       2673.8517  -0.00065052797
       2674.7444     0.084844135
       2675.6372     0.057330340
       2676.5299     0.048740336
       2677.4226     0.050155868
       2678.3153     0.015301136
       2679.2080      0.10579617
       2680.1008      0.10332598
       2680.9935      0.12437383
       2681.8862     0.019686541
       2682.7789     0.091462455
       2683.6716      0.10080645
       2684.5643     0.047868533
       2685.4571     0.040302193
       2686.3498     0.078915441
       2687.2425     0.023724957
       2688.1352     0.031182642
       2689.0279     0.049145989
       2689.9207     0.053802763
       2690.8134     0.096131739
       2691.7061     0.035593389
       2692.5988     0.065400367
       2693.4915     0.063625187
       2694.3842     0.024451661
       2695.2770     0.050539973
       2696.1697     0.014466638
       2697.0624     0.034167269
       2697.9551     0.029506572
       2698.8478     0.011172964
       2699.7406     0.031209295
       2700.6333     0.069266175
       2701.5260     0.052017314
       2702.4187     0.045700454
       2703.3114     0.069344234
       2704.2041      0.10724572
       2705.0969     0.094124589
       2705.9896     0.071014133
       2706.8823     0.073620130
       2707.7750      0.11645591
       2708.6677      0.10629151
       2709.5604     0.061680338
       2710.4532     0.086361496
       2711.3459      0.12559335
       2712.2386      0.10177929
       2713.1313     0.073334179
       2714.0240     0.072927139
       2714.9168      0.12418151
       2715.8095     0.098801203
       2716.7022     0.092060275
       2717.5949      0.10486591
       2718.4876     0.098143664
       2719.3803      0.12235825
       2720.2731      0.10864364
       2721.1658      0.14118750
       2722.0585      0.10262026
       2722.9512     0.091133228
       2723.8439     0.064866284
       2724.7367    0.0089776660
       2725.6294     0.058177936
       2726.5221     0.071858978
       2727.4148      0.11639959
       2728.3075     0.091768814
       2729.2002     0.081221527
       2730.0930     0.093584322
       2730.9857     0.086800698
       2731.8784     0.056595701
       2732.7711      0.12222671
       2733.6638     0.067865400
       2734.5566     0.073025419
       2735.4493     0.047387255
       2736.3420     0.088998513
       2737.2347      0.12100216
       2738.1274     0.053528998
       2739.0201     0.061333325
       2739.9129     0.077334142
       2740.8056     0.087432959
       2741.6983      0.10139860
       2742.5910     0.044117158
       2743.4837      0.10538843
       2744.3765      0.11068451
       2745.2692     0.037903170
       2746.1619     0.072495428
       2747.0546      0.10669710
       2747.9473     0.087638624
       2748.8400     0.044164110
       2749.7328      0.10839995
       2750.6255     0.094214745
       2751.5182     0.077761915
       2752.4109     0.097151104
       2753.3036     0.089672694
       2754.1964     0.088841100
       2755.0891     0.092563911
       2755.9818     0.086319896
       2756.8745     0.098592755
       2757.7672     0.069100748
       2758.6599      0.11218243
       2759.5527     0.079841541
       2760.4454     0.095834721
       2761.3381      0.13454056
       2762.2308      0.10503331
       2763.1235     0.098554014
       2764.0163     0.094819807
       2764.9090     0.092461149
       2765.8017      0.12042770
       2766.6944     0.093627311
       2767.5871      0.10057483
       2768.4798     0.091444699
       2769.3726     0.092422901
       2770.2653      0.10889893
       2771.1580     0.072042575
       2772.0507     0.041447552
       2772.9434     0.055170755
       2773.8362      0.10511289
       2774.7289     0.051128238
       2775.6216    0.0091751832
       2776.5143     0.056337752
       2777.4070     0.037818548
       2778.2997     0.083882397
       2779.1925     0.043517285
       2780.0852     0.027880361
       2780.9779     0.036403874
       2781.8706     0.033918780
       2782.7633     0.049924472
       2783.6561     0.066486389
       2784.5488     0.071292186
       2785.4415     0.069863432
       2786.3342     0.056649034
       2787.2269     0.022219517
       2788.1196     0.068579551
       2789.0124     0.089355794
       2789.9051     0.020121536
       2790.7978     0.063382652
       2791.6905     0.059688975
       2792.5832     0.077656034
       2793.4760     0.054204765
       2794.3687     0.064593676
       2795.2614      0.10714670
       2796.1541     0.095918689
       2797.0468     0.090454413
       2797.9395     0.082226184
       2798.8323     0.057146486
       2799.7250     0.049051672
       2800.6177     0.060998480
       2801.5104     0.097001059
       2802.4031     0.079668256
       2803.2959     0.078849920
       2804.1886      0.10559326
       2805.0813     0.090727662
       2805.9740     0.081280514
       2806.8667     0.072748782
       2807.7594     0.099582311
       2808.6522     0.095409680
       2809.5449     0.070395593
       2810.4376     0.077589078
       2811.3303      0.10736383
       2812.2230      0.11001889
       2813.1158     0.090314731
       2814.0085     0.074164123
       2814.9012     0.072760053
       2815.7939     0.098521978
       2816.6866     0.092358018
       2817.5793      0.12615610
       2818.4721      0.10915977
       2819.3648      0.11965799
       2820.2575     0.088552187
       2821.1502     0.099835748
       2822.0429     0.077834809
       2822.9357     0.071078463
       2823.8284     0.067215153
       2824.7211     0.058942683
       2825.6138     0.071704226
       2826.5065     0.076448410
       2827.3992     0.071342217
       2828.2920     0.071483804
       2829.1847     0.079445036
       2830.0774     0.068251577
       2830.9701     0.077637594
       2831.8628     0.093077596
       2832.7556     0.099887370
       2833.6483      0.10727761
       2834.5410     0.057773742
       2835.4337     0.067627690
       2836.3264      0.10001752
       2837.2191     0.086595185
       2838.1119     0.087293649
       2839.0046     0.067800421
       2839.8973     0.074522193
       2840.7900     0.052010272
       2841.6827     0.081855352
       2842.5755     0.081115961
       2843.4682     0.062089828
       2844.3609     0.051471205
       2845.2536      0.10548396
       2846.1463      0.11273326
       2847.0390      0.10326199
       2847.9318     0.087088648
       2848.8245     0.074217566
       2849.7172     0.091728299
       2850.6099      0.12319018
       2851.5026     0.083330305
       2852.3954     0.051564037
       2853.2881     0.065711254
       2854.1808      0.10161228
       2855.0735      0.10159929
       2855.9662     0.090295268
       2856.8589     0.078805524
       2857.7517     0.060404852
       2858.6444      0.10255543
       2859.5371      0.11733107
       2860.4298      0.10004231
       2861.3225      0.11047984
       2862.2153     0.098464741
       2863.1080     0.075900040
       2864.0007     0.099584244
       2864.8934      0.12195025
       2865.7861      0.11048368
       2866.6788     0.065831774
       2867.5716     0.068727039
       2868.4643     0.071109442
       2869.3570     0.076572459
       2870.2497     0.082065372
       2871.1424     0.062092749
       2872.0352     0.084236918
       2872.9279      0.11166145
       2873.8206      0.14699430
       2874.7133      0.11979115
       2875.6060      0.10685906
       2876.4987     0.057584986
       2877.3915     0.047919949
       2878.2842      0.10686976
       2879.1769     0.080595619
       2880.0696     0.074944898
       2880.9623     0.087011185
       2881.8551     0.064588806
       2882.7478     0.089060342
       2883.6405      0.10025158
       2884.5332     0.094421114
       2885.4259      0.10185027
       2886.3186      0.13042385
       2887.2114     0.093885685
       2888.1041      0.12717860
       2888.9968      0.11764407
       2889.8895     0.086051334
       2890.7822     0.082628899
       2891.6750     0.086629676
       2892.5677     0.085354958
       2893.4604      0.10144286
       2894.3531     0.092563114
       2895.2458     0.095823620
       2896.1385     0.096448213
       2897.0313     0.095750757
       2897.9240      0.10324395
       2898.8167     0.054820716
       2899.7094     0.049230295
       2900.6021     0.071589844
       2901.4949      0.10303749
       2902.3876      0.11711534
       2903.2803      0.10963492
       2904.1730     0.094055106
       2905.0657      0.11389455
       2905.9584     0.095900557
       2906.8512     0.094341345
       2907.7439     0.078399041
       2908.6366     0.081159185
       2909.5293     0.098771724
       2910.4220      0.10028189
       2911.3148      0.10495155
       2912.2075      0.11187412
       2913.1002      0.12390761
       2913.9929     0.097950231
       2914.8856      0.10825127
       2915.7783     0.076875698
       2916.6711      0.10571258
       2917.5638      0.11304489
       2918.4565     0.081197155
       2919.3492     0.067712263
       2920.2419     0.087062460
       2921.1347      0.10331630
       2922.0274      0.11056965
       2922.9201     0.076586609
       2923.8128     0.091280760
       2924.7055     0.090883294
       2925.5982     0.075994012
       2926.4910     0.090232032
       2927.3837     0.093428112
       2928.2764      0.11557562
       2929.1691     0.097147836
       2930.0618     0.051538790
       2930.9546     0.092292365
       2931.8473      0.12638053
       2932.7400      0.11819465
       2933.6327      0.12247814
       2934.5254      0.15228198
       2935.4181      0.14008344
       2936.3109      0.14409871
       2937.2036      0.12710800
       2938.0963      0.11679035
       2938.9890     0.093983463
       2939.8817     0.093741196
       2940.7744     0.093539459
       2941.6672     0.079355331
       2942.5599     0.082319102
       2943.4526     0.099460121
       2944.3453      0.10209580
       2945.2380     0.090407148
       2946.1308     0.082326414
       2947.0235     0.083618864
       2947.9162     0.078294873
       2948.8089     0.071411023
       2949.7016     0.081865121
       2950.5943      0.11081705
       2951.4871      0.11463732
       2952.3798     0.096600720
       2953.2725      0.11280717
       2954.1652      0.10765417
       2955.0579      0.10462713
       2955.9507     0.064675083
       2956.8434     0.097503508
       2957.7361      0.11267814
       2958.6288     0.093301455
       2959.5215     0.079929287
       2960.4142     0.067820128
       2961.3070     0.070709320
       2962.1997     0.089359952
       2963.0924      0.10714150
       2963.9851     0.093455284
       2964.8778      0.10861340
       2965.7706      0.11139433
       2966.6633      0.10859395
       2967.5560      0.10597556
       2968.4487      0.12491049
       2969.3414     0.095173054
       2970.2341     0.081612470
       2971.1269      0.12186890
       2972.0196      0.12054151
       2972.9123      0.12101615
       2973.8050      0.10429560
       2974.6977     0.077056373
       2975.5905      0.12141457
       2976.4832      0.10945027
       2977.3759     0.082810810
       2978.2686     0.096906688
       2979.1613      0.10578489
       2980.0540     0.092167797
       2980.9468     0.064597928
       2981.8395     0.097515733
       2982.7322     0.070377113
       2983.6249     0.073756497
       2984.5176     0.088374111
       2985.4104     0.087055101
       2986.3031     0.095595077
       2987.1958     0.080768404
       2988.0885     0.084408361
       2988.9812      0.11144532
       2989.8739     0.091224768
       2990.7667     0.098430992
       2991.6594      0.11241370
       2992.5521      0.12664581
       2993.4448      0.10540019
       2994.3375     0.088320319
       2995.2303     0.095638982
       2996.1230     0.093145574
       2997.0157      0.12417581
       2997.9084     0.099380035
       2998.8011      0.11051358
       2999.6938      0.10775065
       3000.5866      0.12327787
       3001.4793      0.12408939
       3002.3720      0.12056727
       3003.2647      0.10038980
       3004.1574     0.085655926
       3005.0502     0.097179342
       3005.9429     0.083660175
       3006.8356      0.11461178
       3007.7283      0.12334113
       3008.6210      0.11322853
       3009.5137      0.12736677
       3010.4065      0.13743994
       3011.2992      0.12348051
       3012.1919      0.10012015
       3013.0846     0.066545016
       3013.9773      0.10936299
       3014.8701      0.10400645
       3015.7628     0.080542771
       3016.6555      0.10555338
       3017.5482      0.11463383
       3018.4409      0.10123962
       3019.3336     0.055601932
       3020.2264     0.068159458
       3021.1191      0.14990169
       3022.0118      0.16648787
       3022.9045      0.17762282
       3023.7972      0.15072937
       3024.6900      0.17135909
       3025.5827      0.11400055
       3026.4754     0.064624117
       3027.3681      0.15283873
       3028.2608      0.13932019
       3029.1535      0.13112558
       3030.0463      0.13062803
       3030.9390      0.14625127
       3031.8317      0.14687277
       3032.7244      0.12208997
       3033.6171      0.11724809
       3034.5099      0.14184889
       3035.4026      0.15159574
       3036.2953      0.13021860
       3037.1880      0.13744614
       3038.0807      0.14645859
       3038.9734      0.11380216
       3039.8662     0.091204615
       3040.7589      0.12058740
       3041.6516      0.12982624
       3042.5443      0.12757256
       3043.4370      0.11584841
       3044.3298      0.11093085
       3045.2225     0.090604303
       3046.1152     0.072666726
       3047.0079      0.11592605
       3047.9006      0.16283334
       3048.7933      0.13329775
       3049.6861      0.15837976
       3050.5788      0.11916596
       3051.4715      0.14577413
       3052.3642      0.14048664
       3053.2569      0.11924936
       3054.1497      0.10635943
       3055.0424      0.12185255
       3055.9351      0.11394235
       3056.8278      0.12749263
       3057.7205      0.12554743
       3058.6132      0.13440036
       3059.5060      0.11798383
       3060.3987      0.13721679
       3061.2914      0.15020953
       3062.1841      0.13380900
       3063.0768      0.12736027
       3063.9696      0.12547558
       3064.8623      0.13994747
       3065.7550      0.12198757
       3066.6477      0.13916682
       3067.5404      0.13586171
       3068.4331      0.12766157
       3069.3259      0.12275452
       3070.2186      0.15815176
       3071.1113      0.16536928
       3072.0040      0.15542202
       3072.8967      0.15401517
       3073.7895      0.13501958
       3074.6822      0.12192554
       3075.5749      0.16554692
       3076.4676      0.17990822
       3077.3603      0.15891064
       3078.2530      0.14851295
       3079.1458      0.15532049
       3080.0385      0.12078083
       3080.9312      0.11684947
       3081.8239      0.11117830
       3082.7166      0.15593065
       3083.6094      0.16504290
       3084.5021      0.15819729
       3085.3948      0.16496274
       3086.2875      0.13133499
       3087.1802      0.11081495
       3088.0729     0.081120691
       3088.9657      0.11413042
       3089.8584      0.16757356
       3090.7511      0.12359265
       3091.6438      0.14449055
       3092.5365      0.12719834
       3093.4293      0.13659677
       3094.3220      0.11091905
       3095.2147      0.13312122
       3096.1074      0.17783402
       3097.0001      0.14458098
       3097.8928      0.14530724
       3098.7856      0.13231231
       3099.6783      0.14677494
       3100.5710      0.11745007
       3101.4637      0.15194785
       3102.3564      0.13583429
       3103.2492     0.096372861
       3104.1419      0.12985682
       3105.0346      0.15620411
       3105.9273      0.14607510
       3106.8200      0.13081587
       3107.7127      0.14586438
       3108.6055      0.14008499
       3109.4982      0.13887967
       3110.3909      0.11214136
       3111.2836      0.11863028
       3112.1763      0.14788152
       3113.0691      0.15175088
       3113.9618      0.15100859
       3114.8545      0.13648836
       3115.7472      0.14403231
       3116.6399      0.13195837
       3117.5326      0.14133607
       3118.4254      0.13650454
       3119.3181      0.15825560
       3120.2108      0.11940035
       3121.1035      0.11479364
       3121.9962      0.17217415
       3122.8890      0.14278941
       3123.7817      0.12472489
       3124.6744      0.16998027
       3125.5671      0.17224041
       3126.4598      0.16786839
