# wavelength flux
       2832.7428      0.16578340
       2833.7201     0.066153885
       2834.6973     0.054840043
       2835.6746     0.089478278
       2836.6518      0.23728948
       2837.6291     0.091534941
       2838.6063     0.096713536
       2839.5836     0.023004437
       2840.5608     0.086668840
       2841.5381      0.11008838
       2842.5153      0.13674587
       2843.4925      0.18511563
       2844.4698     0.087223113
       2845.4470      0.10955381
       2846.4243     0.070323486
       2847.4015     0.038673397
       2848.3788      0.14771268
       2849.3560      0.11591514
       2850.3333      0.11383665
       2851.3105     0.093079149
       2852.2878     0.093058565
       2853.2650    0.0055657370
       2854.2422     0.099489663
       2855.2195      0.13217673
       2856.1967     0.085738165
       2857.1740      0.14162015
       2858.1512      0.12857925
       2859.1285      0.10146882
       2860.1057      0.15030341
       2861.0830      0.18535756
       2862.0602      0.16322426
       2863.0375      0.11235179
       2864.0147     0.060019839
       2864.9919     0.047044103
       2865.9692      0.15650438
       2866.9464      0.13689150
       2867.9237      0.18314793
       2868.9009     0.098573901
       2869.8782     0.075301220
       2870.8554      0.15033139
       2871.8327     0.093045281
       2872.8099     0.095967118
       2873.7872      0.19137044
       2874.7644      0.12884636
       2875.7416     0.066741331
       2876.7189      0.12865030
       2877.6961      0.13937434
       2878.6734      0.16277649
       2879.6506      0.14448168
       2880.6279      0.13454245
       2881.6051      0.15424874
       2882.5824      0.11296462
       2883.5596     0.068172416
       2884.5369      0.14420671
       2885.5141     0.030071171
       2886.4913      0.17813471
       2887.4686      0.16819790
       2888.4458      0.16645108
       2889.4231      0.16293017
       2890.4003      0.12269048
       2891.3776      0.16631674
       2892.3548      0.12164135
       2893.3321      0.17955051
       2894.3093      0.21436318
       2895.2866      0.13391431
       2896.2638     0.095676059
       2897.2411      0.19249868
       2898.2183      0.18093402
       2899.1955      0.12414385
       2900.1728      0.12056406
       2901.1500      0.17415971
       2902.1273     0.094134429
       2903.1045      0.12813882
       2904.0818      0.21211186
       2905.0590      0.10862851
       2906.0363      0.10807320
       2907.0135      0.11070738
       2907.9908     0.089791341
       2908.9680      0.13787305
       2909.9452      0.18340671
       2910.9225      0.15273251
       2911.8997      0.10894899
       2912.8770     0.095490780
       2913.8542      0.17978945
       2914.8315      0.10044643
       2915.8087      0.12356755
       2916.7860      0.10590729
       2917.7632     0.095521471
       2918.7405      0.10803356
       2919.7177      0.15846378
       2920.6949      0.15495011
       2921.6722      0.12182603
       2922.6494      0.10083601
       2923.6267      0.13284410
       2924.6039      0.13432199
       2925.5812      0.15909837
       2926.5584      0.11962722
       2927.5357      0.17947629
       2928.5129      0.20040757
       2929.4902      0.18176576
       2930.4674      0.21846197
       2931.4446      0.12096560
       2932.4219      0.14492526
       2933.3991      0.21128870
       2934.3764      0.10741583
       2935.3536      0.18352532
       2936.3309      0.18578696
       2937.3081      0.14477711
       2938.2854      0.11376826
       2939.2626      0.12347116
       2940.2399      0.14601333
       2941.2171      0.15577770
       2942.1943      0.15215710
       2943.1716      0.14507520
       2944.1488      0.16225079
       2945.1261      0.13793405
       2946.1033      0.15082441
       2947.0806      0.18102585
       2948.0578      0.17624003
       2949.0351      0.12863634
       2950.0123      0.16000448
       2950.9896      0.22094130
       2951.9668      0.16956957
       2952.9440      0.14027808
       2953.9213      0.15182493
       2954.8985      0.15082683
       2955.8758      0.21628696
       2956.8530      0.19186342
       2957.8303      0.11804189
       2958.8075      0.13195389
       2959.7848      0.14892958
       2960.7620      0.16057787
       2961.7393      0.15577473
       2962.7165      0.11747325
       2963.6937      0.12110367
       2964.6710      0.11256251
       2965.6482      0.20615371
       2966.6255      0.20083180
       2967.6027      0.13627607
       2968.5800      0.19481393
       2969.5572      0.17665804
       2970.5345      0.13266153
       2971.5117      0.16549828
       2972.4890      0.16959307
       2973.4662      0.19829076
       2974.4435      0.19474107
       2975.4207      0.17999805
       2976.3979      0.22366482
       2977.3752      0.17543874
       2978.3524      0.23569469
       2979.3297      0.19880139
       2980.3069      0.10647556
       2981.2842      0.21147380
       2982.2614      0.22961746
       2983.2387      0.17143146
       2984.2159      0.15431978
       2985.1932      0.21322907
       2986.1704      0.19839077
       2987.1476      0.21467860
       2988.1249      0.14767918
       2989.1021      0.18070087
       2990.0794      0.13864087
       2991.0566      0.20859657
       2992.0339      0.21949000
       2993.0111      0.19330955
       2993.9884      0.19908420
       2994.9656      0.19073726
       2995.9429      0.21190507
       2996.9201      0.15789868
       2997.8973      0.23275483
       2998.8746      0.18210217
       2999.8518      0.19527272
       3000.8291      0.14126697
       3001.8063      0.14536497
       3002.7836      0.16829186
       3003.7608      0.16642756
       3004.7381      0.22128099
       3005.7153      0.19592031
       3006.6926      0.16552814
       3007.6698      0.19059831
       3008.6470      0.18087906
       3009.6243      0.15448394
       3010.6015      0.16970382
       3011.5788      0.18105651
       3012.5560      0.19499893
       3013.5333      0.16498982
       3014.5105      0.19303281
       3015.4878      0.16635070
       3016.4650      0.19422788
       3017.4423      0.20012696
       3018.4195      0.17501704
       3019.3967      0.14209608
       3020.3740      0.15430640
       3021.3512      0.18317127
       3022.3285      0.16236443
       3023.3057      0.21154339
       3024.2830      0.16047307
       3025.2602      0.19938568
       3026.2375      0.21613832
       3027.2147      0.22890358
       3028.1920      0.17524845
       3029.1692      0.21562790
       3030.1464      0.15498569
       3031.1237      0.29610327
       3032.1009      0.19992998
       3033.0782      0.23497113
       3034.0554      0.24176662
       3035.0327      0.24362687
       3036.0099      0.19831119
       3036.9872      0.26740613
       3037.9644      0.18396402
       3038.9417      0.25894323
       3039.9189      0.19606717
       3040.8962      0.21687877
       3041.8734      0.17967591
       3042.8506      0.17141140
       3043.8279      0.23389413
       3044.8051      0.19875759
       3045.7824      0.18454721
       3046.7596      0.22650203
       3047.7369      0.16103900
       3048.7141      0.24668606
       3049.6914      0.19020386
       3050.6686      0.18631443
       3051.6459      0.21120165
       3052.6231      0.21720831
       3053.6003      0.22225626
       3054.5776      0.27126479
       3055.5548      0.23556130
       3056.5321      0.24876365
       3057.5093      0.22296209
       3058.4866      0.21598587
       3059.4638      0.18603060
       3060.4411      0.20157570
       3061.4183      0.18821405
       3062.3956      0.24949611
       3063.3728      0.23959012
       3064.3500      0.23371297
       3065.3273      0.21374388
       3066.3045      0.21897709
       3067.2818      0.23760843
       3068.2590      0.25976124
       3069.2363      0.22016218
       3070.2135      0.23489848
       3071.1908      0.25488399
       3072.1680      0.21886059
       3073.1453      0.20604332
       3074.1225      0.18418547
       3075.0997      0.21621759
       3076.0770      0.21757379
       3077.0542      0.17878798
       3078.0315      0.18738709
       3079.0087      0.23018174
       3079.9860      0.20005387
       3080.9632      0.21891076
       3081.9405      0.24197155
       3082.9177      0.22398104
       3083.8950      0.19215157
       3084.8722      0.17436369
       3085.8494      0.18205565
       3086.8267      0.17980257
       3087.8039      0.19573981
       3088.7812      0.24352938
       3089.7584      0.27906550
       3090.7357      0.26799118
       3091.7129      0.21266486
       3092.6902      0.19714114
       3093.6674      0.21878949
       3094.6447      0.18972581
       3095.6219      0.20655187
       3096.5991      0.26760038
       3097.5764      0.28830353
       3098.5536      0.26271023
       3099.5309      0.23500763
       3100.5081      0.24853316
       3101.4854      0.26862108
       3102.4626      0.22973243
       3103.4399      0.21516838
       3104.4171      0.25600360
       3105.3944      0.20505024
       3106.3716      0.18362614
       3107.3488      0.25125330
       3108.3261      0.19208677
       3109.3033      0.20052572
       3110.2806      0.24843377
       3111.2578      0.21724147
       3112.2351      0.23809583
       3113.2123      0.24035870
       3114.1896      0.27952952
       3115.1668      0.23606629
       3116.1441      0.28249592
       3117.1213      0.27635720
       3118.0986      0.24617361
       3119.0758      0.20770163
       3120.0530      0.22026843
       3121.0303      0.26979168
       3122.0075      0.25163100
       3122.9848      0.22913095
       3123.9620      0.22281008
       3124.9393      0.26809341
       3125.9165      0.21037725
       3126.8938     0.083169021
       3127.8710      0.11480281
       3128.8483      0.15546681
       3129.8255      0.23331101
       3130.8027      0.20993170
       3131.7800      0.25306268
       3132.7572      0.25954071
       3133.7345      0.23744016
       3134.7117      0.22141272
       3135.6890      0.24589346
       3136.6662      0.24323703
       3137.6435      0.27148494
       3138.6207      0.27827059
       3139.5980      0.25809069
       3140.5752      0.27486732
       3141.5524      0.26858882
       3142.5297      0.29467093
       3143.5069      0.31252103
       3144.4842      0.28201709
       3145.4614      0.23450665
       3146.4387      0.22803523
       3147.4159      0.24337578
       3148.3932      0.23499139
       3149.3704      0.23034995
       3150.3477      0.19242167
       3151.3249      0.22910579
       3152.3021      0.23340019
       3153.2794      0.18982139
       3154.2566      0.22509471
       3155.2339      0.24659807
       3156.2111      0.31349360
       3157.1884      0.27293392
       3158.1656      0.26435689
       3159.1429      0.27704604
       3160.1201      0.22353859
       3161.0974      0.26604602
       3162.0746      0.28254965
       3163.0518      0.23634034
       3164.0291      0.27161371
       3165.0063      0.29415236
       3165.9836      0.28468688
       3166.9608      0.29127120
       3167.9381      0.25764858
       3168.9153      0.23356431
       3169.8926      0.29087323
       3170.8698      0.22198162
       3171.8471      0.23261095
       3172.8243      0.26292737
       3173.8015      0.24200686
       3174.7788      0.19526962
       3175.7560      0.20266840
       3176.7333      0.29101774
       3177.7105      0.29281079
       3178.6878      0.23974323
       3179.6650      0.28472394
       3180.6423      0.28492547
       3181.6195      0.22465750
       3182.5968      0.22784093
       3183.5740      0.23428227
       3184.5512      0.23239539
       3185.5285      0.28183764
       3186.5057      0.26899347
       3187.4830      0.23782357
       3188.4602      0.26236944
       3189.4375      0.25163079
       3190.4147      0.28477285
       3191.3920      0.32493721
       3192.3692      0.33727756
       3193.3465      0.31501657
       3194.3237      0.30952834
       3195.3010      0.30114172
       3196.2782      0.27551641
       3197.2554      0.33797815
       3198.2327      0.30048598
       3199.2099      0.28814465
       3200.1872      0.28403845
       3201.1644      0.27424613
       3202.1417      0.26111030
       3203.1189      0.24206450
       3204.0962      0.22239166
       3205.0734      0.30866238
       3206.0507      0.32259470
       3207.0279      0.31552694
       3208.0051      0.20106729
       3208.9824      0.28640966
       3209.9596      0.27288851
       3210.9369      0.31876131
       3211.9141      0.33792622
       3212.8914      0.26297083
       3213.8686      0.30581199
       3214.8459      0.31517512
       3215.8231      0.29380376
       3216.8004      0.24309004
       3217.7776      0.28800592
       3218.7548      0.29116737
       3219.7321      0.26457274
       3220.7093      0.24799745
       3221.6866      0.21843889
       3222.6638      0.27830367
       3223.6411      0.23606618
       3224.6183      0.19244147
       3225.5956      0.20701192
       3226.5728      0.24004175
       3227.5501      0.24092793
       3228.5273      0.24957617
       3229.5045      0.26921124
       3230.4818      0.29218547
       3231.4590      0.26934457
       3232.4363      0.25741703
       3233.4135      0.24590985
       3234.3908      0.30099708
       3235.3680      0.29801576
       3236.3453      0.28676167
       3237.3225      0.29624470
       3238.2998      0.26717768
       3239.2770      0.32328836
       3240.2542      0.32557433
       3241.2315      0.31414802
       3242.2087      0.27654931
       3243.1860      0.31656331
       3244.1632      0.23561402
       3245.1405      0.23409346
       3246.1177      0.32560195
       3247.0950      0.31051162
       3248.0722      0.34677594
       3249.0495      0.32752661
       3250.0267      0.30210332
       3251.0039      0.31252855
       3251.9812      0.29590897
       3252.9584      0.32114391
       3253.9357      0.32260325
       3254.9129      0.35083837
       3255.8902      0.33836875
       3256.8674      0.33243364
       3257.8447      0.35185276
       3258.8219      0.35848962
       3259.7992      0.40185528
       3260.7764      0.32329778
       3261.7537      0.30185088
       3262.7309      0.31659934
       3263.7081      0.31812025
       3264.6854      0.36583584
       3265.6626      0.36897962
       3266.6399      0.35443520
       3267.6171      0.31383731
       3268.5944      0.35943802
       3269.5716      0.35409040
       3270.5489      0.35112929
       3271.5261      0.34481238
       3272.5034      0.34378486
       3273.4806      0.34752577
       3274.4578      0.35697937
       3275.4351      0.36637804
       3276.4123      0.38443011
       3277.3896      0.38392825
       3278.3668      0.34686263
       3279.3441      0.39243189
       3280.3213      0.33305167
       3281.2986      0.32845093
       3282.2758      0.36891057
       3283.2531      0.41444465
       3284.2303      0.41600497
       3285.2075      0.41789696
       3286.1848      0.40721542
       3287.1620      0.36069464
       3288.1393      0.42350502
       3289.1165      0.41169753
       3290.0938      0.41348233
       3291.0710      0.43644493
       3292.0483      0.37952872
       3293.0255      0.44581315
       3294.0028      0.42742145
       3294.9800      0.43508698
       3295.9572      0.38381026
       3296.9345      0.39332137
       3297.9117      0.36066103
       3298.8890      0.35453872
       3299.8662      0.36866842
       3300.8435      0.34857963
       3301.8207      0.38719232
       3302.7980      0.40926444
       3303.7752      0.36292750
       3304.7525      0.36164529
       3305.7297      0.36422201
       3306.7069      0.34924003
       3307.6842      0.38646110
       3308.6614      0.38044883
       3309.6387      0.36713987
       3310.6159      0.39207471
       3311.5932      0.44444416
       3312.5704      0.41395439
       3313.5477      0.40157950
       3314.5249      0.40093754
       3315.5022      0.38943146
       3316.4794      0.40458911
       3317.4566      0.39375000
       3318.4339      0.37302172
       3319.4111      0.38396104
       3320.3884      0.36669432
       3321.3656      0.40653761
       3322.3429      0.34697764
       3323.3201      0.39092991
       3324.2974      0.40457642
       3325.2746      0.39873355
       3326.2519      0.36341353
       3327.2291      0.42754344
       3328.2063      0.40423109
       3329.1836      0.38684291
       3330.1608      0.36146689
       3331.1381      0.40534866
       3332.1153      0.38116998
       3333.0926      0.38687720
       3334.0698      0.38496495
       3335.0471      0.40400275
       3336.0243      0.36388794
       3337.0016      0.41604688
       3337.9788      0.42354733
       3338.9561      0.39279323
       3339.9333      0.36555417
       3340.9105      0.37785664
       3341.8878      0.42188909
       3342.8650      0.35337800
       3343.8423      0.41419623
       3344.8195      0.46068305
       3345.7968      0.41056422
       3346.7740      0.38337513
       3347.7513      0.36546237
       3348.7285      0.44505926
       3349.7058      0.42872325
       3350.6830      0.43814210
       3351.6602      0.40635441
       3352.6375      0.37375090
       3353.6147      0.38415229
       3354.5920      0.36716046
       3355.5692      0.35874874
       3356.5465      0.38598217
       3357.5237      0.35163901
       3358.5010      0.31658308
       3359.4782      0.39006731
       3360.4555      0.34846910
       3361.4327      0.36350993
       3362.4099      0.32736932
       3363.3872      0.41308813
       3364.3644      0.36363033
       3365.3417      0.33692594
       3366.3189      0.37736932
       3367.2962      0.29368333
       3368.2734      0.35599107
       3369.2507      0.40709332
       3370.2279      0.43331108
       3371.2052      0.38743039
       3372.1824      0.33409465
       3373.1596      0.41815848
       3374.1369      0.42146246
       3375.1141      0.40600413
       3376.0914      0.34930617
       3377.0686      0.43406330
       3378.0459      0.42343769
       3379.0231      0.41451875
       3380.0004      0.45656990
       3380.9776      0.45283032
       3381.9549      0.40710043
       3382.9321      0.43161133
       3383.9093      0.43669612
       3384.8866      0.42469196
       3385.8638      0.45597549
       3386.8411      0.38734573
       3387.8183      0.42669136
       3388.7956      0.35182253
       3389.7728      0.42462586
       3390.7501      0.41794843
       3391.7273      0.45197353
       3392.7046      0.38772550
       3393.6818      0.41145124
       3394.6590      0.45143292
       3395.6363      0.49524629
       3396.6135      0.43025094
       3397.5908      0.49407571
       3398.5680      0.45231043
       3399.5453      0.46150076
       3400.5225      0.45237263
       3401.4998      0.42871619
       3402.4770      0.38025692
       3403.4543      0.41329787
       3404.4315      0.42393440
       3405.4088      0.41491969
       3406.3860      0.42015556
       3407.3632      0.39506372
       3408.3405      0.37990805
       3409.3177      0.41569945
       3410.2950      0.36121135
       3411.2722      0.40106297
       3412.2495      0.42289645
       3413.2267      0.39295622
       3414.2040      0.44343294
       3415.1812      0.47287523
       3416.1585      0.47224824
       3417.1357      0.44337187
       3418.1129      0.45553298
       3419.0902      0.45753966
       3420.0674      0.44978396
       3421.0447      0.43900448
       3422.0219      0.44851572
       3422.9992      0.44491002
