# wavelength flux
       2552.6421      0.29956062
       2553.5287      0.13840135
       2554.4153      0.22161687
       2555.3019      0.24508133
       2556.1886      0.15024036
       2557.0752   -0.0011795330
       2557.9618      0.18466761
       2558.8484      0.17342577
       2559.7351      0.24446360
       2560.6217      0.23023743
       2561.5083      0.11682666
       2562.3949      0.31366904
       2563.2816      0.30844956
       2564.1682      0.34274974
       2565.0548      0.19019833
       2565.9415      0.20847961
       2566.8281      0.23644323
       2567.7147      0.22447618
       2568.6013      0.15758187
       2569.4880      0.19939275
       2570.3746      0.27492279
       2571.2612      0.11203056
       2572.1478     0.060942122
       2573.0345      0.17705587
       2573.9211      0.28786721
       2574.8077      0.20645388
       2575.6943      0.20003396
       2576.5810      0.27357891
       2577.4676      0.19055182
       2578.3542      0.18924711
       2579.2408      0.10451681
       2580.1275      0.30176635
       2581.0141      0.20639232
       2581.9007      0.32459118
       2582.7874      0.30423011
       2583.6740      0.34039078
       2584.5606      0.28606615
       2585.4472      0.31093680
       2586.3339      0.26884483
       2587.2205      0.24599151
       2588.1071      0.29741538
       2588.9937      0.17296748
       2589.8804      0.31770832
       2590.7670      0.25997254
       2591.6536      0.23726074
       2592.5402      0.20880840
       2593.4269     0.070397565
       2594.3135      0.21656886
       2595.2001      0.20091188
       2596.0867      0.30838745
       2596.9734      0.22125104
       2597.8600      0.25277045
       2598.7466      0.25547076
       2599.6333      0.34171923
       2600.5199      0.25073430
       2601.4065      0.43718064
       2602.2931      0.41130786
       2603.1798      0.29884617
       2604.0664      0.39866204
       2604.9530      0.31243613
       2605.8396      0.33700899
       2606.7263      0.23838533
       2607.6129      0.31324717
       2608.4995      0.32234424
       2609.3861      0.28034782
       2610.2728      0.20031626
       2611.1594      0.25396397
       2612.0460      0.23525724
       2612.9327      0.21459952
       2613.8193      0.12429461
       2614.7059      0.18772727
       2615.5925      0.19815977
       2616.4792      0.22140448
       2617.3658      0.29906242
       2618.2524      0.25185010
       2619.1390      0.24721462
       2620.0257      0.24327067
       2620.9123      0.25896853
       2621.7989      0.31367570
       2622.6855      0.26389237
       2623.5722      0.25813430
       2624.4588      0.19803330
       2625.3454      0.18182174
       2626.2320      0.34929669
       2627.1187      0.31903138
       2628.0053      0.30647748
       2628.8919      0.30963899
       2629.7786      0.24737575
       2630.6652      0.34349371
       2631.5518      0.32333382
       2632.4384      0.32845966
       2633.3251      0.39445706
       2634.2117      0.25284977
       2635.0983      0.16250905
       2635.9849      0.33550737
       2636.8716      0.26501694
       2637.7582      0.35767499
       2638.6448      0.25793698
       2639.5314      0.20931136
       2640.4181      0.30738492
       2641.3047      0.34304657
       2642.1913      0.32639606
       2643.0780      0.31703583
       2643.9646      0.30041075
       2644.8512      0.25739461
       2645.7378      0.31704805
       2646.6245      0.30066503
       2647.5111      0.16025040
       2648.3977      0.24292259
       2649.2843      0.31011303
       2650.1710      0.37766793
       2651.0576      0.32423366
       2651.9442      0.28756933
       2652.8308      0.22974119
       2653.7175      0.36702466
       2654.6041      0.38785477
       2655.4907      0.31533411
       2656.3773      0.29247192
       2657.2640      0.26281020
       2658.1506      0.32661598
       2659.0372      0.35850093
       2659.9239      0.34240271
       2660.8105      0.38935008
       2661.6971      0.28151226
       2662.5837      0.45646481
       2663.4704      0.42820847
       2664.3570      0.31061099
       2665.2436      0.29129850
       2666.1302      0.38642565
       2667.0169      0.26230127
       2667.9035      0.32981084
       2668.7901      0.38932830
       2669.6767      0.46171841
       2670.5634      0.29134112
       2671.4500      0.37620708
       2672.3366      0.38714453
       2673.2232      0.27958417
       2674.1099      0.37252420
       2674.9965      0.28419479
       2675.8831      0.31257223
       2676.7698      0.31571589
       2677.6564      0.35919770
       2678.5430      0.35570618
       2679.4296      0.38515954
       2680.3163      0.31271669
       2681.2029      0.32049117
       2682.0895      0.40205085
       2682.9761      0.32719661
       2683.8628      0.37031850
       2684.7494      0.29852106
       2685.6360      0.22325080
       2686.5226      0.33519046
       2687.4093      0.34429095
       2688.2959      0.32719280
       2689.1825      0.25566783
       2690.0692      0.29884334
       2690.9558      0.34640655
       2691.8424      0.28277298
       2692.7290      0.24183363
       2693.6157      0.29291659
       2694.5023      0.32984388
       2695.3889      0.27691457
       2696.2755      0.33062495
       2697.1622      0.44163402
       2698.0488      0.30782999
       2698.9354      0.41646751
       2699.8220      0.32426965
       2700.7087      0.27666420
       2701.5953      0.39096180
       2702.4819      0.32381450
       2703.3685      0.28539051
       2704.2552      0.37234641
       2705.1418      0.38749909
       2706.0284      0.36961136
       2706.9151      0.38000066
       2707.8017      0.30712294
       2708.6883      0.35946190
       2709.5749      0.31439736
       2710.4616      0.38456660
       2711.3482      0.22238354
       2712.2348      0.34560699
       2713.1214      0.40273951
       2714.0081      0.35308022
       2714.8947      0.39393861
       2715.7813      0.39516990
       2716.6679      0.37944800
       2717.5546      0.34046547
       2718.4412      0.35034980
       2719.3278      0.35915281
       2720.2145      0.31145189
       2721.1011      0.37250166
       2721.9877      0.31519684
       2722.8743      0.23106090
       2723.7610      0.27805706
       2724.6476      0.31182870
       2725.5342      0.33842439
       2726.4208      0.36268253
       2727.3075      0.33844806
       2728.1941      0.30316564
       2729.0807      0.35514702
       2729.9673      0.29106331
       2730.8540      0.35183469
       2731.7406      0.37621463
       2732.6272      0.26877906
       2733.5138      0.25063044
       2734.4005      0.35292404
       2735.2871      0.35741148
       2736.1737      0.33748918
       2737.0604      0.31783917
       2737.9470      0.34510986
       2738.8336      0.31534632
       2739.7202      0.33369227
       2740.6069      0.26587636
       2741.4935      0.26177173
       2742.3801      0.27102622
       2743.2667      0.29474258
       2744.1534      0.27718747
       2745.0400      0.24929871
       2745.9266      0.32032884
       2746.8132      0.34696329
       2747.6999      0.27014874
       2748.5865      0.38435733
       2749.4731      0.43429204
       2750.3597      0.34825394
       2751.2464      0.43709865
       2752.1330      0.23589057
       2753.0196      0.41730269
       2753.9063      0.36769932
       2754.7929      0.36515647
       2755.6795      0.28172859
       2756.5661      0.39071339
       2757.4528      0.37677046
       2758.3394      0.37975319
       2759.2260      0.32901714
       2760.1126      0.30382334
       2760.9993      0.33472550
       2761.8859      0.31904654
       2762.7725      0.38110147
       2763.6591      0.27951444
       2764.5458      0.31005201
       2765.4324      0.33463452
       2766.3190      0.29192625
       2767.2057      0.33842082
       2768.0923      0.23297240
       2768.9789      0.30255215
       2769.8655      0.29613668
       2770.7522      0.32935967
       2771.6388      0.22347325
       2772.5254      0.25619743
       2773.4120      0.18837613
       2774.2987      0.40973089
       2775.1853      0.34239004
       2776.0719      0.31764879
       2776.9585      0.33911455
       2777.8452      0.39949050
       2778.7318      0.29013720
       2779.6184      0.23308174
       2780.5050      0.28596791
       2781.3917      0.27984746
       2782.2783      0.19118744
       2783.1649      0.26079848
       2784.0516      0.14350002
       2784.9382      0.18821682
       2785.8248      0.11543740
       2786.7114      0.16689869
       2787.5981      0.22300465
       2788.4847      0.20827707
       2789.3713      0.19173443
       2790.2579      0.14072571
       2791.1446      0.14064798
       2792.0312      0.20476612
       2792.9178     0.097517214
       2793.8044      0.11994636
       2794.6911      0.16777975
       2795.5777      0.23704725
       2796.4643      0.29758076
       2797.3509      0.35944461
       2798.2376      0.29731520
       2799.1242      0.39366354
       2800.0108      0.39436391
       2800.8975      0.29348892
       2801.7841      0.26418565
       2802.6707      0.40660460
       2803.5573      0.40929933
       2804.4440      0.30379502
       2805.3306      0.34013126
       2806.2172      0.28527283
       2807.1038      0.33408783
       2807.9905      0.33993670
       2808.8771      0.30888441
       2809.7637      0.31873117
       2810.6503      0.33096697
       2811.5370      0.25453229
       2812.4236      0.43235805
       2813.3102      0.35806752
       2814.1969      0.35462440
       2815.0835      0.39031211
       2815.9701      0.29420695
       2816.8567      0.37938378
       2817.7434      0.34717161
       2818.6300      0.33031467
       2819.5166      0.37713786
       2820.4032      0.33989071
       2821.2899      0.28240331
       2822.1765      0.37110155
       2823.0631      0.33397145
       2823.9497      0.26157242
       2824.8364      0.39336325
       2825.7230      0.39734003
       2826.6096      0.32233268
       2827.4962      0.33361077
       2828.3829      0.42245400
       2829.2695      0.32075860
       2830.1561      0.32099092
       2831.0428      0.39953253
       2831.9294      0.32245299
       2832.8160      0.31777149
       2833.7026      0.43284268
       2834.5893      0.36282164
       2835.4759      0.37272375
       2836.3625      0.34257775
       2837.2491      0.38493375
       2838.1358      0.31691500
       2839.0224      0.36650874
       2839.9090      0.37959922
       2840.7956      0.38887236
       2841.6823      0.25588324
       2842.5689      0.34982193
       2843.4555      0.29996451
       2844.3422      0.30405466
       2845.2288      0.33777801
       2846.1154      0.29613159
       2847.0020      0.30458985
       2847.8887      0.38013374
       2848.7753      0.35351149
       2849.6619      0.30423255
       2850.5485      0.32312492
       2851.4352      0.28571321
       2852.3218      0.30708404
       2853.2084      0.34990593
       2854.0950      0.31306536
       2854.9817      0.33722379
       2855.8683      0.34040196
       2856.7549      0.32588104
       2857.6415      0.35303032
       2858.5282      0.32975945
       2859.4148      0.38619502
       2860.3014      0.41273661
       2861.1881      0.34772791
       2862.0747      0.33091946
       2862.9613      0.41144892
       2863.8479      0.36065728
       2864.7346      0.29966753
       2865.6212      0.33236754
       2866.5078      0.39554417
       2867.3944      0.27949841
       2868.2811      0.28926656
       2869.1677      0.29011193
       2870.0543      0.27092150
       2870.9409      0.29420351
       2871.8276      0.32456888
       2872.7142      0.38273345
       2873.6008      0.34622052
       2874.4874      0.28882505
       2875.3741      0.29259009
       2876.2607      0.39322900
       2877.1473      0.40963520
       2878.0340      0.32165682
       2878.9206      0.33054408
       2879.8072      0.31679446
       2880.6938      0.40455384
       2881.5805      0.34970252
       2882.4671      0.43776440
       2883.3537      0.33083687
       2884.2403      0.39545808
       2885.1270      0.33331487
       2886.0136      0.36237626
       2886.9002      0.34569572
       2887.7868      0.31597030
       2888.6735      0.32014701
       2889.5601      0.42572690
       2890.4467      0.36227461
       2891.3334      0.31555717
       2892.2200      0.29825685
       2893.1066      0.39617777
       2893.9932      0.39598548
       2894.8799      0.32786802
       2895.7665      0.39438805
       2896.6531      0.31799690
       2897.5397      0.36210467
       2898.4264      0.31910499
       2899.3130      0.38326863
       2900.1996      0.31789634
       2901.0862      0.32941641
       2901.9729      0.33282106
       2902.8595      0.35012449
       2903.7461      0.38047102
       2904.6327      0.40313074
       2905.5194      0.42348334
       2906.4060      0.44270818
       2907.2926      0.38692246
       2908.1793      0.45787934
       2909.0659      0.33471730
       2909.9525      0.44369385
       2910.8391      0.46687104
       2911.7258      0.49250302
       2912.6124      0.44921825
       2913.4990      0.38040331
       2914.3856      0.33026525
       2915.2723      0.38056637
       2916.1589      0.38116953
       2917.0455      0.35328392
       2917.9321      0.34354260
       2918.8188      0.41484168
       2919.7054      0.35020649
       2920.5920      0.37621152
       2921.4787      0.32158966
       2922.3653      0.33455637
       2923.2519      0.45537953
       2924.1385      0.43357822
       2925.0252      0.35412943
       2925.9118      0.37321938
       2926.7984      0.40746316
       2927.6850      0.30254642
       2928.5717      0.38605026
       2929.4583      0.41098110
       2930.3449      0.41658068
       2931.2315      0.39602060
       2932.1182      0.44439750
       2933.0048      0.39074870
       2933.8914      0.39511886
       2934.7780      0.45785138
       2935.6647      0.36448176
       2936.5513      0.34279483
       2937.4379      0.41564524
       2938.3246      0.42233043
       2939.2112      0.39912926
       2940.0978      0.39363107
       2940.9844      0.42871542
       2941.8711      0.41351832
       2942.7577      0.35543375
       2943.6443      0.46214953
       2944.5309      0.42518087
       2945.4176      0.44230492
       2946.3042      0.36249410
       2947.1908      0.37482109
       2948.0774      0.43068354
       2948.9641      0.35947344
       2949.8507      0.38669740
       2950.7373      0.42801809
       2951.6239      0.34759110
       2952.5106      0.46425977
       2953.3972      0.32561495
       2954.2838      0.43645608
       2955.1705      0.41420888
       2956.0571      0.46125230
       2956.9437      0.39411246
       2957.8303      0.33790694
       2958.7170      0.41387552
       2959.6036      0.43263546
       2960.4902      0.41855562
       2961.3768      0.37388441
       2962.2635      0.40149701
       2963.1501      0.37243800
       2964.0367      0.47409223
       2964.9233      0.42364404
       2965.8100      0.44149408
       2966.6966      0.35625975
       2967.5832      0.42867155
       2968.4699      0.41860699
       2969.3565      0.38590737
       2970.2431      0.34126317
       2971.1297      0.42093906
       2972.0164      0.36764550
       2972.9030      0.42632189
       2973.7896      0.40812207
       2974.6762      0.33901541
       2975.5629      0.36927882
       2976.4495      0.40151415
       2977.3361      0.41130904
       2978.2227      0.44938794
       2979.1094      0.33392375
       2979.9960      0.38486955
       2980.8826      0.37406905
       2981.7692      0.39722552
       2982.6559      0.39435596
       2983.5425      0.39131685
       2984.4291      0.38907922
       2985.3158      0.37668884
       2986.2024      0.39988433
       2987.0890      0.37285740
       2987.9756      0.38096748
       2988.8623      0.33712780
       2989.7489      0.30965499
       2990.6355      0.43585473
       2991.5221      0.37518009
       2992.4088      0.37610437
       2993.2954      0.32549584
       2994.1820      0.32492630
       2995.0686      0.36965464
       2995.9553      0.43169457
       2996.8419      0.43379317
       2997.7285      0.46855289
       2998.6152      0.30825006
       2999.5018      0.35425765
       3000.3884      0.38119852
       3001.2750      0.34987709
       3002.1617      0.41880315
       3003.0483      0.31763141
       3003.9349      0.36195519
       3004.8215      0.33778659
       3005.7082      0.44103202
       3006.5948      0.40966289
       3007.4814      0.39261266
       3008.3680      0.34703788
       3009.2547      0.45562841
       3010.1413      0.41332617
       3011.0279      0.48109966
       3011.9145      0.40937087
       3012.8012      0.27176887
       3013.6878      0.35680730
       3014.5744      0.39208856
       3015.4611      0.39613762
       3016.3477      0.37004745
       3017.2343      0.37698811
       3018.1209      0.36642502
       3019.0076      0.41332777
       3019.8942      0.39773492
       3020.7808      0.41690282
       3021.6674      0.43142689
       3022.5541      0.44620684
       3023.4407      0.42775070
       3024.3273      0.35575063
       3025.2139      0.37404205
       3026.1006      0.40624434
       3026.9872      0.37422917
       3027.8738      0.37505155
       3028.7604      0.40232292
       3029.6471      0.36993171
       3030.5337      0.44791558
       3031.4203      0.43028128
       3032.3070      0.41413751
       3033.1936      0.39284616
       3034.0802      0.39357912
       3034.9668      0.43158500
       3035.8535      0.50639099
       3036.7401      0.38993504
       3037.6267      0.40382790
       3038.5133      0.37678747
       3039.4000      0.46396796
       3040.2866      0.45369740
       3041.1732      0.51109743
       3042.0598      0.49195612
       3042.9465      0.42697588
       3043.8331      0.36927082
       3044.7197      0.36575603
       3045.6064      0.41216157
       3046.4930      0.43931768
       3047.3796      0.45029328
       3048.2662      0.32891928
       3049.1529      0.38960693
       3050.0395      0.45292790
       3050.9261      0.41516056
       3051.8127      0.48346569
       3052.6994      0.47864306
       3053.5860      0.37756925
       3054.4726      0.49662867
       3055.3592      0.45777131
       3056.2459      0.51526141
       3057.1325      0.44551423
       3058.0191      0.46129653
       3058.9057      0.39378459
       3059.7924      0.41179372
       3060.6790      0.46723130
       3061.5656      0.37266214
       3062.4523      0.37913173
       3063.3389      0.41433302
       3064.2255      0.44513359
       3065.1121      0.48489693
       3065.9988      0.41307227
       3066.8854      0.35630123
       3067.7720      0.47814373
       3068.6586      0.44730343
       3069.5453      0.38948466
       3070.4319      0.45478047
       3071.3185      0.37792795
       3072.2051      0.38866565
       3073.0918      0.43187142
       3073.9784      0.39598754
       3074.8650      0.43297561
       3075.7517      0.40003340
       3076.6383      0.51733241
       3077.5249      0.52473630
       3078.4115      0.48068666
       3079.2982      0.42168444
       3080.1848      0.45004754
       3081.0714      0.49869791
       3081.9580      0.43143945
       3082.8447      0.45754826
       3083.7313      0.40403770
       3084.6179      0.39535827
       3085.5045      0.40535527
       3086.3912      0.47437879
       3087.2778      0.39554280
       3088.1644      0.46462593
