# wavelength flux
       2514.5741      0.11875019
       2515.4396      0.10948872
       2516.3051      0.15026494
       2517.1705      0.14016867
       2518.0360      0.11894047
       2518.9015     0.054956801
       2519.7670     0.074866003
       2520.6325     0.069859562
       2521.4980     0.043753426
       2522.3634     0.084090617
       2523.2289      0.16874531
       2524.0944      0.20876645
       2524.9599      0.25183648
       2525.8254      0.27500537
       2526.6909      0.21640411
       2527.5563      0.16928784
       2528.4218      0.17452190
       2529.2873      0.10957240
       2530.1528      0.22857109
       2531.0183      0.22189954
       2531.8838      0.19178759
       2532.7492      0.16413992
       2533.6147      0.11785803
       2534.4802      0.17574998
       2535.3457      0.19692741
       2536.2112      0.14265661
       2537.0767      0.10768763
       2537.9421      0.22530226
       2538.8076      0.11141489
       2539.6731     0.092973626
       2540.5386      0.11966841
       2541.4041      0.16738094
       2542.2696      0.22765191
       2543.1350      0.19694352
       2544.0005      0.22741132
       2544.8660      0.19774548
       2545.7315      0.22519119
       2546.5970      0.22132418
       2547.4625      0.25728067
       2548.3279      0.22705422
       2549.1934      0.25109405
       2550.0589      0.19338137
       2550.9244      0.17518193
       2551.7899      0.14296142
       2552.6554      0.21307870
       2553.5208      0.24220364
       2554.3863      0.22646394
       2555.2518      0.22331609
       2556.1173      0.21201018
       2556.9828      0.13166247
       2557.8482      0.18396682
       2558.7137      0.18755230
       2559.5792      0.17767906
       2560.4447      0.16974366
       2561.3102      0.13201415
       2562.1757      0.10403269
       2563.0411      0.17809745
       2563.9066      0.19913976
       2564.7721      0.22721535
       2565.6376      0.20971336
       2566.5031      0.20241877
       2567.3686      0.21404194
       2568.2340      0.16514902
       2569.0995      0.20204537
       2569.9650      0.21487596
       2570.8305      0.29794944
       2571.6960      0.18205854
       2572.5615      0.17192904
       2573.4269      0.22147161
       2574.2924      0.27098542
       2575.1579      0.14518777
       2576.0234      0.16375183
       2576.8889      0.15657155
       2577.7544      0.17149614
       2578.6198      0.23886251
       2579.4853      0.19721934
       2580.3508      0.15606948
       2581.2163      0.20662066
       2582.0818      0.24107220
       2582.9473      0.19987078
       2583.8127      0.21272073
       2584.6782      0.23167746
       2585.5437      0.22371522
       2586.4092      0.18093423
       2587.2747      0.24693805
       2588.1402      0.27046417
       2589.0056      0.26787633
       2589.8711      0.27662869
       2590.7366      0.29637638
       2591.6021      0.32599977
       2592.4676      0.26466320
       2593.3331      0.30090977
       2594.1985      0.25644291
       2595.0640      0.28607574
       2595.9295      0.22719868
       2596.7950      0.24444906
       2597.6605      0.24171145
       2598.5260      0.27123341
       2599.3914      0.21952231
       2600.2569      0.20549117
       2601.1224      0.22578621
       2601.9879      0.26247430
       2602.8534      0.19102946
       2603.7189      0.15329214
       2604.5843      0.25334257
       2605.4498      0.17599790
       2606.3153      0.16765612
       2607.1808      0.23577093
       2608.0463      0.22651645
       2608.9118      0.16831595
       2609.7772      0.22653865
       2610.6427      0.28143973
       2611.5082      0.20203394
       2612.3737      0.20583651
       2613.2392      0.21042943
       2614.1047      0.20222514
       2614.9701      0.23543411
       2615.8356      0.29355557
       2616.7011      0.22322771
       2617.5666      0.22335385
       2618.4321      0.28258662
       2619.2976      0.21981372
       2620.1630      0.18183604
       2621.0285      0.24579315
       2621.8940      0.37115863
       2622.7595      0.35008307
       2623.6250      0.39379028
       2624.4905      0.34675235
       2625.3559      0.36644520
       2626.2214      0.36659018
       2627.0869      0.30424322
       2627.9524      0.33156119
       2628.8179      0.34009197
       2629.6834      0.34474661
       2630.5488      0.29434868
       2631.4143      0.28144735
       2632.2798      0.28059536
       2633.1453      0.24266333
       2634.0108      0.23829837
       2634.8762      0.24244651
       2635.7417      0.23458482
       2636.6072      0.27640294
       2637.4727      0.23308523
       2638.3382      0.25582196
       2639.2037      0.25184727
       2640.0691      0.25614295
       2640.9346      0.24881503
       2641.8001      0.28794117
       2642.6656      0.30383283
       2643.5311      0.25941918
       2644.3966      0.25823844
       2645.2620      0.19892539
       2646.1275      0.18150530
       2646.9930      0.21236854
       2647.8585      0.25446002
       2648.7240      0.21393574
       2649.5895      0.26814975
       2650.4549      0.22230254
       2651.3204      0.19734870
       2652.1859      0.17107271
       2653.0514      0.18635544
       2653.9169      0.12670219
       2654.7824      0.18676266
       2655.6478      0.22896191
       2656.5133      0.15783692
       2657.3788      0.19943967
       2658.2443      0.22984727
       2659.1098      0.25209471
       2659.9753      0.31201678
       2660.8407      0.31097349
       2661.7062      0.24947859
       2662.5717      0.22382546
       2663.4372      0.23975218
       2664.3027      0.29931275
       2665.1682      0.24325574
       2666.0336      0.22340748
       2666.8991      0.27275765
       2667.7646      0.23851150
       2668.6301      0.27232362
       2669.4956      0.38502758
       2670.3611      0.29557127
       2671.2265      0.23222854
       2672.0920      0.19522493
       2672.9575      0.20445385
       2673.8230      0.21477026
       2674.6885      0.22882745
       2675.5540      0.19703376
       2676.4194      0.19165950
       2677.2849      0.11743064
       2678.1504      0.20964033
       2679.0159      0.22474057
       2679.8814      0.13074689
       2680.7469      0.15871208
       2681.6123      0.29188618
       2682.4778      0.27970753
       2683.3433      0.26793294
       2684.2088      0.24785884
       2685.0743      0.23318760
       2685.9398      0.28404265
       2686.8052      0.33520950
       2687.6707      0.28434557
       2688.5362      0.28590065
       2689.4017      0.22583116
       2690.2672      0.24568206
       2691.1327      0.27047556
       2691.9981      0.23035962
       2692.8636      0.25415335
       2693.7291      0.28484341
       2694.5946      0.27067742
       2695.4601      0.27438615
       2696.3256      0.27165806
       2697.1910      0.23457314
       2698.0565      0.21130322
       2698.9220      0.20708826
       2699.7875      0.25888256
       2700.6530      0.25424312
       2701.5185      0.17778298
       2702.3839      0.15751859
       2703.2494      0.22878735
       2704.1149      0.19732265
       2704.9804      0.22201545
       2705.8459      0.15272729
       2706.7114      0.19784299
       2707.5768      0.20623913
       2708.4423      0.17614435
       2709.3078      0.22448540
       2710.1733      0.20476575
       2711.0388      0.20314382
       2711.9043      0.30351016
       2712.7697      0.30877828
       2713.6352      0.21300063
       2714.5007      0.26442641
       2715.3662      0.18475006
       2716.2317      0.16396184
       2717.0971      0.24840837
       2717.9626      0.22235846
       2718.8281      0.22624522
       2719.6936      0.20794722
       2720.5591      0.19729170
       2721.4246      0.25222300
       2722.2900      0.23473742
       2723.1555      0.25476803
       2724.0210      0.22115651
       2724.8865      0.19188823
       2725.7520      0.21373056
       2726.6175      0.19848577
       2727.4829      0.23357793
       2728.3484      0.26375314
       2729.2139      0.18925278
       2730.0794      0.19870935
       2730.9449      0.20884411
       2731.8104      0.17561996
       2732.6758      0.20940090
       2733.5413      0.18524798
       2734.4068      0.18314552
       2735.2723      0.21983848
       2736.1378      0.20197080
       2737.0033      0.18501727
       2737.8687      0.23214399
       2738.7342      0.26058112
       2739.5997      0.26307592
       2740.4652      0.26267429
       2741.3307      0.25907490
       2742.1962      0.27638336
       2743.0616      0.28343335
       2743.9271      0.20091129
       2744.7926      0.15262393
       2745.6581      0.13805455
       2746.5236      0.18781412
       2747.3891      0.21463545
       2748.2545      0.16915251
       2749.1200      0.13861678
       2749.9855      0.21900343
       2750.8510      0.24828872
       2751.7165      0.25312302
       2752.5820      0.24330520
       2753.4474      0.18000286
       2754.3129      0.17658550
       2755.1784      0.20834501
       2756.0439      0.14273157
       2756.9094      0.21793960
       2757.7749      0.25553654
       2758.6403      0.20892028
       2759.5058      0.20960603
       2760.3713      0.23136761
       2761.2368      0.15418177
       2762.1023      0.15760192
       2762.9678      0.19097369
       2763.8332      0.26794134
       2764.6987      0.15882121
       2765.5642      0.20951800
       2766.4297      0.20559893
       2767.2952      0.16059262
       2768.1607      0.16012770
       2769.0261      0.18340671
       2769.8916      0.15411930
       2770.7571      0.23467197
       2771.6226      0.19771761
       2772.4881      0.17239024
       2773.3536      0.25437658
       2774.2190      0.22615872
       2775.0845      0.13763210
       2775.9500      0.15924624
       2776.8155      0.20196517
       2777.6810      0.19550644
       2778.5465      0.22564329
       2779.4119      0.20625776
       2780.2774      0.18103129
       2781.1429      0.23047381
       2782.0084      0.25298828
       2782.8739      0.20688210
       2783.7394      0.22210689
       2784.6048      0.26096265
       2785.4703      0.22961241
       2786.3358      0.18990082
       2787.2013      0.20899478
       2788.0668      0.19153404
       2788.9323      0.17172748
       2789.7977      0.17153729
       2790.6632      0.15294402
       2791.5287      0.21719585
       2792.3942      0.19197462
       2793.2597      0.12330687
       2794.1251      0.13432722
       2794.9906      0.16378604
       2795.8561      0.21119503
       2796.7216      0.17884905
       2797.5871      0.17942791
       2798.4526      0.16987604
       2799.3180      0.17689822
       2800.1835      0.19394944
       2801.0490      0.22317115
       2801.9145      0.13538045
       2802.7800      0.19553356
       2803.6455      0.23933087
       2804.5109      0.23883603
       2805.3764      0.20118093
       2806.2419      0.20782292
       2807.1074      0.25326356
       2807.9729      0.24339479
       2808.8384      0.26784197
       2809.7038      0.23438410
       2810.5693      0.23047686
       2811.4348      0.22655380
       2812.3003      0.18707743
       2813.1658      0.19113829
       2814.0313      0.19194436
       2814.8967      0.17379942
       2815.7622      0.14712057
       2816.6277      0.15215017
       2817.4932      0.11778343
       2818.3587      0.17590378
       2819.2242      0.20436724
       2820.0896      0.18214440
       2820.9551      0.16938479
       2821.8206      0.18077776
       2822.6861      0.15723926
       2823.5516      0.22678554
       2824.4171      0.21117723
       2825.2825      0.21374845
       2826.1480      0.21246594
       2827.0135      0.22454088
       2827.8790      0.16924220
       2828.7445      0.20097125
       2829.6100      0.19800348
       2830.4754      0.23222820
       2831.3409      0.26019457
       2832.2064      0.22161896
       2833.0719      0.20514021
       2833.9374      0.22478797
       2834.8029      0.21146794
       2835.6683      0.28492594
       2836.5338      0.22979556
       2837.3993      0.21557234
       2838.2648      0.29195730
       2839.1303      0.26925859
       2839.9958      0.26481259
       2840.8612      0.22178674
       2841.7267      0.24487857
       2842.5922      0.26756678
       2843.4577      0.28352373
       2844.3232      0.22257827
       2845.1887      0.19844014
       2846.0541      0.30907135
       2846.9196      0.18029436
       2847.7851      0.25337538
       2848.6506      0.17472119
       2849.5161     0.082150783
       2850.3816      0.15361992
       2851.2470      0.17805512
       2852.1125      0.23582690
       2852.9780      0.19435992
       2853.8435      0.14836107
       2854.7090      0.16293720
       2855.5745      0.13788991
       2856.4399      0.22254787
       2857.3054      0.19412530
       2858.1709      0.18664148
       2859.0364      0.22877623
       2859.9019      0.22922865
       2860.7674      0.12968208
       2861.6328      0.11883845
       2862.4983      0.15156344
       2863.3638      0.19393526
       2864.2293      0.23110004
       2865.0948      0.14696411
       2865.9603      0.19020196
       2866.8257      0.16789834
       2867.6912      0.15323205
       2868.5567      0.14961606
       2869.4222      0.12304059
       2870.2877      0.15985750
       2871.1532      0.14199523
       2872.0186      0.10765065
       2872.8841      0.15283648
       2873.7496      0.11492171
       2874.6151      0.16373666
       2875.4806      0.19065830
       2876.3460      0.17450214
       2877.2115      0.21048436
       2878.0770      0.22009498
       2878.9425      0.17219441
       2879.8080      0.12502256
       2880.6735      0.14366264
       2881.5389      0.20414436
       2882.4044      0.20653115
       2883.2699      0.15315076
       2884.1354      0.21393025
       2885.0009      0.13285200
       2885.8664      0.17543397
       2886.7318      0.14129706
       2887.5973     0.087332571
       2888.4628      0.13447559
       2889.3283      0.13478157
       2890.1938      0.15922049
       2891.0593      0.18529133
       2891.9247      0.19244246
       2892.7902      0.18024885
       2893.6557      0.17379994
       2894.5212      0.19131637
       2895.3867      0.20072691
       2896.2522      0.22031402
       2897.1176      0.22549953
       2897.9831      0.20824714
       2898.8486      0.19575101
       2899.7141      0.21213545
       2900.5796      0.23453442
       2901.4451      0.27666571
       2902.3105      0.34561252
       2903.1760      0.21619200
       2904.0415      0.17454707
       2904.9070      0.24483759
       2905.7725      0.26985032
       2906.6380      0.30468218
       2907.5034      0.19797468
       2908.3689      0.28968021
       2909.2344      0.25376484
       2910.0999      0.20129292
       2910.9654      0.14041573
       2911.8309      0.17494927
       2912.6963      0.17880763
       2913.5618      0.27150060
       2914.4273      0.23885376
       2915.2928      0.22622898
       2916.1583      0.19634640
       2917.0238      0.25184440
       2917.8892      0.22611132
       2918.7547      0.25714475
       2919.6202      0.16855140
       2920.4857      0.17207309
       2921.3512      0.15504450
       2922.2167      0.18142497
       2923.0821      0.15667050
       2923.9476      0.15184902
       2924.8131      0.20787712
       2925.6786      0.21201276
       2926.5441      0.23664595
       2927.4096      0.12847033
       2928.2750      0.11472718
       2929.1405      0.24182037
       2930.0060      0.27089386
       2930.8715      0.25841674
       2931.7370      0.23753809
       2932.6025      0.22075161
       2933.4679      0.22441680
       2934.3334      0.22783273
       2935.1989     0.073905374
       2936.0644      0.10103794
       2936.9299      0.14066124
       2937.7954      0.19561892
       2938.6608      0.22154640
       2939.5263      0.22524558
       2940.3918      0.17930765
       2941.2573      0.19964132
       2942.1228      0.17815554
       2942.9883      0.14839918
       2943.8537      0.15103619
       2944.7192      0.20589691
       2945.5847      0.25906364
       2946.4502      0.14765332
       2947.3157      0.17266950
       2948.1812      0.15761339
       2949.0466      0.21685135
       2949.9121      0.15161437
       2950.7776      0.18763944
       2951.6431      0.17129656
       2952.5086      0.24828627
       2953.3740      0.15733347
       2954.2395      0.14313575
       2955.1050      0.21262708
       2955.9705      0.16437531
       2956.8360      0.20536006
       2957.7015      0.22054340
       2958.5669      0.25437953
       2959.4324      0.12806700
       2960.2979      0.18452373
       2961.1634      0.20849746
       2962.0289      0.19226152
       2962.8944      0.22368422
       2963.7598      0.21965942
       2964.6253      0.26583498
       2965.4908      0.10203459
       2966.3563      0.19984855
       2967.2218      0.22052729
       2968.0873      0.20996458
       2968.9527      0.25807272
       2969.8182      0.23665595
       2970.6837      0.19322707
       2971.5492      0.24309460
       2972.4147      0.23362826
       2973.2802      0.19550935
       2974.1456      0.22255848
       2975.0111      0.24091196
       2975.8766      0.26124199
       2976.7421      0.33477398
       2977.6076      0.16017295
       2978.4731      0.15403049
       2979.3385      0.19685350
       2980.2040      0.18757455
       2981.0695      0.15152357
       2981.9350      0.18675120
       2982.8005      0.22739348
       2983.6660      0.17861214
       2984.5314      0.13651767
       2985.3969      0.21058510
       2986.2624      0.17106195
       2987.1279      0.11343654
       2987.9934      0.17530412
       2988.8589      0.17306932
       2989.7243      0.16380968
       2990.5898      0.18287514
       2991.4553      0.10982800
       2992.3208      0.16587844
       2993.1863     0.065897628
       2994.0518      0.16452411
       2994.9172      0.12325071
       2995.7827      0.12711735
       2996.6482      0.20328013
       2997.5137      0.17485140
       2998.3792      0.27534530
       2999.2447      0.15010010
       3000.1101      0.15525824
       3000.9756      0.16080790
       3001.8411      0.18769053
       3002.7066      0.21262720
       3003.5721      0.19883466
       3004.4376      0.19835833
       3005.3030      0.18323713
       3006.1685      0.11877004
       3007.0340      0.13611323
       3007.8995      0.16625070
       3008.7650      0.19393410
       3009.6305      0.16551270
       3010.4959      0.17473519
       3011.3614      0.23490296
       3012.2269      0.20976233
       3013.0924      0.20694606
       3013.9579      0.13102729
       3014.8234      0.19498703
       3015.6888      0.12790705
       3016.5543      0.17240724
       3017.4198      0.22159591
       3018.2853      0.18538453
       3019.1508      0.16547034
       3020.0163      0.18233265
       3020.8817      0.17168875
       3021.7472      0.19238354
       3022.6127      0.16528648
       3023.4782      0.15833891
       3024.3437      0.10478303
       3025.2092      0.16922461
       3026.0746      0.24864543
       3026.9401      0.26970708
       3027.8056      0.15415644
       3028.6711      0.18585655
       3029.5366      0.22236047
       3030.4020      0.22610374
       3031.2675      0.23260931
       3032.1330      0.19168349
       3032.9985      0.23642077
       3033.8640      0.16541149
       3034.7295      0.20381425
       3035.5949      0.13708031
       3036.4604      0.11399734
       3037.3259      0.15554318
