# wavelength flux
       2682.4572      0.11281867
       2683.3591      0.18052359
       2684.2610     0.070990262
       2685.1628      0.14980522
       2686.0647      0.13861868
       2686.9666      0.10160833
       2687.8685      0.19419581
       2688.7704    0.0088320478
       2689.6722      0.25679807
       2690.5741      0.38952264
       2691.4760     0.069007939
       2692.3779     0.058518005
       2693.2798     0.073286799
       2694.1816      0.13896360
       2695.0835      0.11619200
       2695.9854      0.17782448
       2696.8873      0.14177869
       2697.7892      0.15520306
       2698.6910      0.19675562
       2699.5929      0.12684773
       2700.4948     0.066317949
       2701.3967      0.17818453
       2702.2986      0.10668337
       2703.2004      0.21199921
       2704.1023      0.21532811
       2705.0042      0.26978113
       2705.9061      0.16042229
       2706.8080     0.035472833
       2707.7099     0.068330183
       2708.6117     0.093811367
       2709.5136     0.028239790
       2710.4155      0.12200813
       2711.3174      0.21685884
       2712.2193     0.077136980
       2713.1211      0.17861032
       2714.0230      0.16507582
       2714.9249      0.11586793
       2715.8268      0.18637738
       2716.7287      0.20611241
       2717.6305      0.20664227
       2718.5324      0.23501182
       2719.4343      0.35480481
       2720.3362      0.19279203
       2721.2381      0.17330411
       2722.1399     0.043002741
       2723.0418      0.12721313
       2723.9437     0.091832364
       2724.8456      0.22472874
       2725.7475      0.18576954
       2726.6493     0.082918447
       2727.5512     0.096852908
       2728.4531      0.19999318
       2729.3550     0.093350879
       2730.2569      0.30717181
       2731.1588     0.046176435
       2732.0606     0.087759573
       2732.9625      0.13436411
       2733.8644      0.13913420
       2734.7663      0.16433139
       2735.6682      0.33535948
       2736.5700      0.15584867
       2737.4719     0.032443736
       2738.3738      0.21017854
       2739.2757      0.16229089
       2740.1776      0.22990862
       2741.0794      0.25483546
       2741.9813     0.010307231
       2742.8832      0.13428718
       2743.7851      0.13915934
       2744.6870      0.12489425
       2745.5888     0.056409871
       2746.4907     0.090720682
       2747.3926     0.065470795
       2748.2945      0.18593590
       2749.1964      0.17811083
       2750.0982      0.24163405
       2751.0001      0.14579441
       2751.9020      0.12505683
       2752.8039      0.17920758
       2753.7058     0.068433453
       2754.6076      0.22004564
       2755.5095     0.066782245
       2756.4114      0.18569978
       2757.3133      0.28970622
       2758.2152      0.18111266
       2759.1171      0.20935319
       2760.0189      0.33660746
       2760.9208     0.088076597
       2761.8227      0.19068231
       2762.7246      0.17559334
       2763.6265      0.34525955
       2764.5283     0.086095637
       2765.4302      0.11181234
       2766.3321      0.15913475
       2767.2340      0.16182939
       2768.1359      0.20040179
       2769.0377     0.083512651
       2769.9396      0.23038389
       2770.8415      0.15336604
       2771.7434      0.12024858
       2772.6453      0.16854733
       2773.5471      0.19231249
       2774.4490      0.10257286
       2775.3509      0.13466792
       2776.2528      0.16414993
       2777.1547      0.12233612
       2778.0565   -0.0028534423
       2778.9584     0.085848867
       2779.8603     0.028079895
       2780.7622      0.18542833
       2781.6641     0.054903942
       2782.5660      0.15661626
       2783.4678      0.12793143
       2784.3697      0.12559082
       2785.2716      0.21372706
       2786.1735      0.11100565
       2787.0754      0.16051735
       2787.9772      0.22469976
       2788.8791      0.19532565
       2789.7810      0.31337380
       2790.6829      0.22936001
       2791.5848      0.13379431
       2792.4866      0.20931343
       2793.3885      0.21928178
       2794.2904      0.28547831
       2795.1923      0.15221122
       2796.0942      0.16497539
       2796.9960      0.18659770
       2797.8979      0.23837385
       2798.7998      0.24104954
       2799.7017      0.18759031
       2800.6036      0.21917905
       2801.5054      0.23625148
       2802.4073      0.18437384
       2803.3092      0.16711217
       2804.2111      0.17620073
       2805.1130      0.26053994
       2806.0149      0.23978469
       2806.9167      0.24737468
       2807.8186      0.26758633
       2808.7205      0.15675975
       2809.6224      0.19525820
       2810.5243      0.27196492
       2811.4261      0.27773450
       2812.3280      0.20539586
       2813.2299      0.18137931
       2814.1318      0.25307304
       2815.0337      0.13233320
       2815.9355      0.25437873
       2816.8374      0.22917593
       2817.7393      0.22008429
       2818.6412      0.17394876
       2819.5431      0.18158464
       2820.4449      0.22945378
       2821.3468      0.15208102
       2822.2487      0.23390031
       2823.1506      0.18024675
       2824.0525      0.31754182
       2824.9543      0.22581500
       2825.8562      0.26910268
       2826.7581      0.28729377
       2827.6600      0.15168595
       2828.5619      0.24233334
       2829.4638      0.14327458
       2830.3656      0.16009150
       2831.2675      0.29400292
       2832.1694      0.16350903
       2833.0713      0.19707599
       2833.9732      0.19999412
       2834.8750      0.15947141
       2835.7769      0.31520888
       2836.6788      0.17412232
       2837.5807      0.18874139
       2838.4826      0.15883469
       2839.3844      0.19771586
       2840.2863      0.22095722
       2841.1882      0.18804381
       2842.0901      0.14530585
       2842.9920      0.17490856
       2843.8938      0.15789986
       2844.7957      0.17805884
       2845.6976      0.18136878
       2846.5995      0.24527982
       2847.5014      0.23682583
       2848.4032      0.26936606
       2849.3051      0.21103103
       2850.2070      0.22918816
       2851.1089      0.26832719
       2852.0108      0.13058744
       2852.9127      0.25409025
       2853.8145      0.33328460
       2854.7164      0.25990161
       2855.6183      0.20421654
       2856.5202      0.26113302
       2857.4221      0.25822723
       2858.3239      0.23302441
       2859.2258      0.27909281
       2860.1277      0.23171865
       2861.0296      0.24572312
       2861.9315      0.26110769
       2862.8333      0.25914047
       2863.7352      0.21374551
       2864.6371      0.21298143
       2865.5390      0.24938473
       2866.4409      0.23111930
       2867.3427      0.26174657
       2868.2446     0.095139995
       2869.1465      0.21691265
       2870.0484      0.13272382
       2870.9503     0.093885246
       2871.8521      0.23090491
       2872.7540      0.19084557
       2873.6559      0.19276163
       2874.5578      0.26554583
       2875.4597      0.26244705
       2876.3616      0.26845261
       2877.2634      0.22290846
       2878.1653      0.27131098
       2879.0672      0.24386042
       2879.9691      0.22953909
       2880.8710      0.16850516
       2881.7728      0.21178897
       2882.6747      0.29300288
       2883.5766      0.21446644
       2884.4785      0.20201313
       2885.3804      0.20204813
       2886.2822      0.17925490
       2887.1841      0.15725103
       2888.0860      0.24769319
       2888.9879      0.24908498
       2889.8898      0.23349866
       2890.7916      0.28061248
       2891.6935      0.24359304
       2892.5954      0.20329125
       2893.4973      0.27789018
       2894.3992      0.30215327
       2895.3010      0.11470965
       2896.2029      0.22714936
       2897.1048      0.28869687
       2898.0067      0.28080865
       2898.9086      0.32692193
       2899.8105      0.28554267
       2900.7123      0.23701438
       2901.6142      0.25013239
       2902.5161      0.31486397
       2903.4180      0.27270183
       2904.3199      0.27889193
       2905.2217      0.29710471
       2906.1236      0.29890935
       2907.0255      0.20850118
       2907.9274      0.30658255
       2908.8293      0.24182321
       2909.7311      0.26700719
       2910.6330      0.26740981
       2911.5349      0.17094968
       2912.4368      0.36199543
       2913.3387      0.30768212
       2914.2405      0.24399417
       2915.1424      0.33908335
       2916.0443      0.24290721
       2916.9462      0.24865995
       2917.8481      0.20743054
       2918.7499      0.25443525
       2919.6518      0.20370760
       2920.5537      0.28446699
       2921.4556      0.20110136
       2922.3575      0.27861393
       2923.2594      0.24716994
       2924.1612      0.33485481
       2925.0631      0.30249316
       2925.9650      0.42491304
       2926.8669      0.21551955
       2927.7688      0.23549257
       2928.6706      0.32670731
       2929.5725      0.23818082
       2930.4744      0.25790091
       2931.3763      0.18680353
       2932.2782      0.23191675
       2933.1800      0.31438251
       2934.0819      0.18926548
       2934.9838      0.19224701
       2935.8857      0.26152420
       2936.7876      0.25801119
       2937.6894      0.33590446
       2938.5913      0.20456364
       2939.4932      0.20206130
       2940.3951      0.25015154
       2941.2970      0.21983379
       2942.1988      0.27942743
       2943.1007      0.27766677
       2944.0026      0.28997391
       2944.9045      0.24828409
       2945.8064      0.24583835
       2946.7082      0.24821335
       2947.6101      0.19504761
       2948.5120      0.29871837
       2949.4139      0.29281721
       2950.3158      0.28966505
       2951.2177      0.24737956
       2952.1195      0.33348681
       2953.0214      0.34276086
       2953.9233      0.26707321
       2954.8252      0.34426960
       2955.7271      0.27334035
       2956.6289      0.32741670
       2957.5308      0.24474829
       2958.4327      0.23310261
       2959.3346      0.34889998
       2960.2365      0.33512257
       2961.1383      0.25638215
       2962.0402      0.29448099
       2962.9421      0.24033707
       2963.8440      0.21739944
       2964.7459      0.26683166
       2965.6477      0.28484179
       2966.5496      0.28941147
       2967.4515      0.25941983
       2968.3534      0.28924562
       2969.2553      0.25288743
       2970.1571      0.34012524
       2971.0590      0.31089838
       2971.9609      0.22448388
       2972.8628      0.32082245
       2973.7647      0.31228336
       2974.6666      0.28482523
       2975.5684      0.26087325
       2976.4703      0.25955889
       2977.3722      0.39409915
       2978.2741      0.34214072
       2979.1760      0.26586279
       2980.0778      0.25825746
       2980.9797      0.33662184
       2981.8816      0.28623964
       2982.7835      0.21614333
       2983.6854      0.29980900
       2984.5872      0.28863379
       2985.4891      0.20456691
       2986.3910      0.35067011
       2987.2929      0.30982168
       2988.1948      0.29758624
       2989.0966      0.36609705
       2989.9985      0.32811733
       2990.9004      0.26786959
       2991.8023      0.37602033
       2992.7042      0.36859961
       2993.6060      0.27694167
       2994.5079      0.34581393
       2995.4098      0.24166820
       2996.3117      0.26406944
       2997.2136      0.18008350
       2998.1155      0.31017891
       2999.0173      0.30761718
       2999.9192      0.33551368
       3000.8211      0.25222770
       3001.7230      0.25250363
       3002.6249      0.31275142
       3003.5267      0.33694217
       3004.4286      0.33684501
       3005.3305      0.30601132
       3006.2324      0.27383205
       3007.1343      0.25306984
       3008.0361      0.25162628
       3008.9380      0.36647199
       3009.8399      0.33720860
       3010.7418      0.37095870
       3011.6437      0.16284649
       3012.5455      0.25226979
       3013.4474      0.32031631
       3014.3493      0.22446246
       3015.2512      0.24346669
       3016.1531      0.24363920
       3017.0549      0.25904388
       3017.9568      0.18996206
       3018.8587      0.19103239
       3019.7606      0.26333039
       3020.6625      0.26213305
       3021.5644      0.29004569
       3022.4662      0.18513387
       3023.3681      0.20303641
       3024.2700      0.33226541
       3025.1719      0.27836375
       3026.0738      0.31970433
       3026.9756      0.33752294
       3027.8775      0.37784274
       3028.7794      0.32606016
       3029.6813      0.28511571
       3030.5832      0.29265441
       3031.4850      0.32298413
       3032.3869      0.31929938
       3033.2888      0.28161055
       3034.1907      0.29558575
       3035.0926      0.31585253
       3035.9944      0.34492827
       3036.8963      0.26288145
       3037.7982      0.30615684
       3038.7001      0.31540774
       3039.6020      0.37840360
       3040.5038      0.24838488
       3041.4057      0.32210532
       3042.3076      0.38603934
       3043.2095      0.26687119
       3044.1114      0.36448268
       3045.0133      0.32472776
       3045.9151      0.25096673
       3046.8170      0.31150668
       3047.7189      0.30143049
       3048.6208      0.40192386
       3049.5227      0.26435403
       3050.4245      0.21355892
       3051.3264      0.35898909
       3052.2283      0.38050828
       3053.1302      0.29747961
       3054.0321      0.33445494
       3054.9339      0.30385332
       3055.8358      0.27999682
       3056.7377      0.31206942
       3057.6396      0.33499983
       3058.5415      0.28739535
       3059.4433      0.32805436
       3060.3452      0.27204726
       3061.2471      0.34061761
       3062.1490      0.35129931
       3063.0509      0.25994916
       3063.9527      0.36370229
       3064.8546      0.30808821
       3065.7565      0.20241698
       3066.6584      0.32211333
       3067.5603      0.28941261
       3068.4622      0.30532067
       3069.3640      0.28243496
       3070.2659      0.26021825
       3071.1678      0.30110307
       3072.0697      0.25142057
       3072.9716      0.28366969
       3073.8734      0.36839867
       3074.7753      0.35485310
       3075.6772      0.33139387
       3076.5791      0.27821749
       3077.4810      0.43225202
       3078.3828      0.40830423
       3079.2847      0.34859757
       3080.1866      0.39496074
       3081.0885      0.39638520
       3081.9904      0.48197784
       3082.8922      0.28630436
       3083.7941      0.35263219
       3084.6960      0.36149187
       3085.5979      0.42319969
       3086.4998      0.39303522
       3087.4016      0.25503140
       3088.3035      0.39679351
       3089.2054      0.36350173
       3090.1073      0.25075465
       3091.0092      0.36823761
       3091.9111      0.34644246
       3092.8129      0.36240237
       3093.7148      0.31494841
       3094.6167      0.32477538
       3095.5186      0.25521129
       3096.4205      0.31773537
       3097.3223      0.43953876
       3098.2242      0.37544349
       3099.1261      0.41733958
       3100.0280      0.34089256
       3100.9299      0.43865305
       3101.8317      0.35017390
       3102.7336      0.44246584
       3103.6355      0.32484990
       3104.5374      0.42815587
       3105.4393      0.32625458
       3106.3411      0.44890982
       3107.2430      0.40358949
       3108.1449      0.37904871
       3109.0468      0.38076170
       3109.9487      0.40244713
       3110.8505      0.34186123
       3111.7524      0.39001168
       3112.6543      0.33268956
       3113.5562      0.36731334
       3114.4581      0.35907466
       3115.3600      0.43961601
       3116.2618      0.39886473
       3117.1637      0.35387492
       3118.0656      0.37355491
       3118.9675      0.27311518
       3119.8694      0.36056876
       3120.7712      0.33238362
       3121.6731      0.37272063
       3122.5750      0.33651579
       3123.4769      0.38424244
       3124.3788      0.36024018
       3125.2806      0.31937070
       3126.1825      0.35622127
       3127.0844      0.30236034
       3127.9863      0.40307185
       3128.8882      0.45961131
       3129.7900      0.39465642
       3130.6919      0.44516562
       3131.5938      0.38172030
       3132.4957      0.38968520
       3133.3976      0.39097245
       3134.2994      0.43957317
       3135.2013      0.34195053
       3136.1032      0.41918412
       3137.0051      0.45459097
       3137.9070      0.32042267
       3138.8089      0.30846444
       3139.7107      0.48372313
       3140.6126      0.41360444
       3141.5145      0.32851301
       3142.4164      0.35997125
       3143.3183      0.40365396
       3144.2201      0.36682207
       3145.1220      0.38290417
       3146.0239      0.36869900
       3146.9258      0.40470422
       3147.8277      0.37770191
       3148.7295      0.43345742
       3149.6314      0.40663735
       3150.5333      0.29241074
       3151.4352      0.51721184
       3152.3371      0.41523384
       3153.2389      0.37589937
       3154.1408      0.34440280
       3155.0427      0.43606606
       3155.9446      0.34495230
       3156.8465      0.46510900
       3157.7483      0.41448939
       3158.6502      0.37544508
       3159.5521      0.26536648
       3160.4540      0.29504202
       3161.3559      0.33444013
       3162.2577      0.38111038
       3163.1596      0.36268941
       3164.0615      0.33667671
       3164.9634      0.31728070
       3165.8653      0.39837551
       3166.7672      0.39663052
       3167.6690      0.38192664
       3168.5709      0.38311116
       3169.4728      0.39877360
       3170.3747      0.38007242
       3171.2766      0.34652624
       3172.1784      0.38108954
       3173.0803      0.34229165
       3173.9822      0.42450103
       3174.8841      0.45887504
       3175.7860      0.46384034
       3176.6878      0.43902461
       3177.5897      0.34574905
       3178.4916      0.41122726
       3179.3935      0.40457441
       3180.2954      0.29086247
       3181.1972      0.30278818
       3182.0991      0.26105752
       3183.0010      0.39330009
       3183.9029      0.40062067
       3184.8048      0.40141356
       3185.7066      0.32684267
       3186.6085      0.38500098
       3187.5104      0.50750487
       3188.4123      0.33772701
       3189.3142      0.43663468
       3190.2161      0.39991750
       3191.1179      0.41838147
       3192.0198      0.40349481
       3192.9217      0.31857799
       3193.8236      0.26441012
       3194.7255      0.30520605
       3195.6273      0.30210215
       3196.5292      0.34427447
       3197.4311      0.33513192
       3198.3330      0.40061036
       3199.2349      0.32262291
       3200.1367      0.35296762
       3201.0386      0.41567932
       3201.9405      0.39382615
       3202.8424      0.41744653
       3203.7443      0.36997317
       3204.6461      0.35336533
       3205.5480      0.38337643
       3206.4499      0.39988460
       3207.3518      0.38429969
       3208.2537      0.42843244
       3209.1555      0.40357746
       3210.0574      0.38598253
       3210.9593      0.34750521
       3211.8612      0.35367961
       3212.7631      0.33066065
       3213.6650      0.32032946
       3214.5668      0.32412605
       3215.4687      0.30311213
       3216.3706      0.33234728
       3217.2725      0.26033112
       3218.1744      0.35380653
       3219.0762      0.37773511
       3219.9781      0.31608057
       3220.8800      0.42410198
       3221.7819      0.39820047
       3222.6838      0.35150771
       3223.5856      0.44009064
       3224.4875      0.43021606
       3225.3894      0.36513724
       3226.2913      0.38331793
       3227.1932      0.32556944
