# wavelength flux
       2317.5242    -0.046109922
       2318.3239      0.11724455
       2319.1236   -0.0083255908
       2319.9233    -0.041607326
       2320.7230      0.12217055
       2321.5227   -0.0092685781
       2322.3224    -0.069198552
       2323.1220     0.034424874
       2323.9217     0.021637829
       2324.7214      0.11835382
       2325.5211     0.048062589
       2326.3208    -0.063129449
       2327.1205     0.042567998
       2327.9202    0.0075813037
       2328.7199      0.16238339
       2329.5196     0.074357190
       2330.3193      0.13519444
       2331.1189     0.011040150
       2331.9186     0.069011194
       2332.7183    -0.060267894
       2333.5180    0.0060363723
       2334.3177    0.0067149268
       2335.1174    -0.046931745
       2335.9171    -0.031254147
       2336.7168    -0.040317398
       2337.5165     0.027704070
       2338.3162     0.075343949
       2339.1158    -0.086596158
       2339.9155     0.045227844
       2340.7152     0.063416636
       2341.5149     -0.10730702
       2342.3146      0.10030647
       2343.1143     0.081391637
       2343.9140   -0.0012009864
       2344.7137     0.066448236
       2345.5134     0.066468978
       2346.3131     0.053035162
       2347.1127     0.085210684
       2347.9124     0.035658709
       2348.7121      0.11793816
       2349.5118      0.18117284
       2350.3115     0.065697373
       2351.1112      0.11395451
       2351.9109     0.075764780
       2352.7106     0.070205188
       2353.5103     0.085761915
       2354.3100     0.050697629
       2355.1096     0.029712118
       2355.9093     0.067394506
       2356.7090     0.015639438
       2357.5087     0.041808561
       2358.3084     0.049874734
       2359.1081     0.039445037
       2359.9078      0.10676709
       2360.7075     0.072483423
       2361.5072    -0.012473482
       2362.3069     0.032590755
       2363.1065      0.13688313
       2363.9062    -0.010709347
       2364.7059    -0.061508560
       2365.5056    0.0042928763
       2366.3053     0.083958262
       2367.1050     0.072845105
       2367.9047     0.064024900
       2368.7044      0.15391118
       2369.5041     0.062967184
       2370.3038    -0.036433830
       2371.1035     0.013531468
       2371.9031   -0.0047376350
       2372.7028    -0.018549996
       2373.5025    -0.067300558
       2374.3022     0.069274118
       2375.1019     0.064162667
       2375.9016    -0.047603814
       2376.7013     0.065952220
       2377.5010    0.0080195564
       2378.3007     0.089984933
       2379.1004     0.018154510
       2379.9000     0.063468170
       2380.6997    -0.055392762
       2381.4994    0.0024535624
       2382.2991     0.013843923
       2383.0988     0.048094235
       2383.8985    -0.013694895
       2384.6982     0.095586478
       2385.4979    0.0011286077
       2386.2976     0.053543440
       2387.0973     0.057436387
       2387.8969     0.025680392
       2388.6966     0.055288854
       2389.4963     0.087689064
       2390.2960     0.042655079
       2391.0957     0.053291498
       2391.8954      0.14364373
       2392.6951     0.092491646
       2393.4948     0.077170148
       2394.2945    0.0083178080
       2395.0942     0.050359142
       2395.8938     0.092832600
       2396.6935    0.0021923609
       2397.4932     0.096973588
       2398.2929      0.10502594
       2399.0926     0.056485315
       2399.8923     0.011997926
       2400.6920    -0.025336060
       2401.4917     0.062527374
       2402.2914     0.023359395
       2403.0911     0.093285976
       2403.8907     0.062302397
       2404.6904     0.045995364
       2405.4901     0.044900654
       2406.2898     0.037822682
       2407.0895      0.10068162
       2407.8892    -0.018311689
       2408.6889     0.064433583
       2409.4886     0.041155437
       2410.2883     0.069559928
       2411.0880      0.18148980
       2411.8876      0.16507534
       2412.6873      0.13489378
       2413.4870     0.098093940
       2414.2867     0.038000025
       2415.0864      0.14088393
       2415.8861    -0.013507703
       2416.6858      0.11710787
       2417.4855     0.062753402
       2418.2852     0.016833030
       2419.0849    -0.015522381
       2419.8845     0.043877815
       2420.6842     0.036152296
       2421.4839     0.029166574
       2422.2836     0.096582293
       2423.0833   -0.0099422276
       2423.8830     0.068233150
       2424.6827     0.046624357
       2425.4824     0.086544576
       2426.2821     0.078416573
       2427.0818     0.050698662
       2427.8814    -0.021042173
       2428.6811     0.033449402
       2429.4808    -0.044101069
       2430.2805      0.10488162
       2431.0802    0.0045339774
       2431.8799    -0.012311917
       2432.6796     0.088489981
       2433.4793      0.13222257
       2434.2790    -0.089200886
       2435.0787     0.043450171
       2435.8783   -0.0010182552
       2436.6780      0.14476195
       2437.4777     0.017175301
       2438.2774     0.090648060
       2439.0771    -0.011287009
       2439.8768      0.12360499
       2440.6765      0.13392144
       2441.4762     0.020389952
       2442.2759     0.036885193
       2443.0756     0.044657492
       2443.8752      0.13122793
       2444.6749     0.019777463
       2445.4746    -0.018010562
       2446.2743     0.031454347
       2447.0740     0.021932298
       2447.8737     0.041692240
       2448.6734      0.11577046
       2449.4731     0.098832296
       2450.2728    0.0099693750
       2451.0725     0.095167774
       2451.8721     0.047541451
       2452.6718     0.073885818
       2453.4715     0.064321032
       2454.2712     0.011107312
       2455.0709     0.013461103
       2455.8706     0.016699524
       2456.6703     0.075192339
       2457.4700     0.040816194
       2458.2697    0.0019828335
       2459.0694     0.021195743
       2459.8690     0.074110567
       2460.6687     0.041280966
       2461.4684     0.018501505
       2462.2681     0.011600504
       2463.0678     0.037184022
       2463.8675     0.049546814
       2464.6672     0.031593865
       2465.4669   -0.0057043887
       2466.2666     0.025890214
       2467.0663   0.00076611515
       2467.8659     0.056804247
       2468.6656     0.039215059
       2469.4653    -0.025355354
       2470.2650     0.082604644
       2471.0647     0.070582778
       2471.8644     0.080939821
       2472.6641     0.059318028
       2473.4638     0.098714026
       2474.2635    -0.015248451
       2475.0632    -0.017117010
       2475.8628     0.061127661
       2476.6625     0.028273935
       2477.4622   -0.0023112613
       2478.2619   -0.0037090812
       2479.0616     0.079130410
       2479.8613     0.098925903
       2480.6610     0.047713701
       2481.4607     0.081418665
       2482.2604     0.019964582
       2483.0601    0.0014939029
       2483.8597      0.16525701
       2484.6594      0.10945283
       2485.4591     0.090163889
       2486.2588   -0.0034075667
       2487.0585     0.048420802
       2487.8582     0.055686890
       2488.6579      0.15162841
       2489.4576     0.085882547
       2490.2573     0.043496133
       2491.0570   -0.0051991772
       2491.8566     0.037026632
       2492.6563     0.076495126
       2493.4560     0.058576290
       2494.2557     0.082222999
       2495.0554     0.057744375
       2495.8551     0.093939184
       2496.6548   -0.0054557879
       2497.4545     0.043961220
       2498.2542     0.076140641
       2499.0539     0.046141519
       2499.8535   -0.0084340239
       2500.6532     0.025918152
       2501.4529    -0.013150252
       2502.2526    -0.012498751
       2503.0523     0.058786392
       2503.8520     0.068283776
       2504.6517    -0.019392802
       2505.4514     0.055081777
       2506.2511     0.091171340
       2507.0508     0.011418829
       2507.8504     0.076001443
       2508.6501     0.098909346
       2509.4498     0.064716568
       2510.2495   -0.0086846792
       2511.0492     0.022767499
       2511.8489     0.013531470
       2512.6486     0.020870822
       2513.4483   -0.0056396764
       2514.2480     0.039554761
       2515.0477    -0.046094497
       2515.8473     0.059413555
       2516.6470     0.048889368
       2517.4467     0.035929212
       2518.2464     0.077702318
       2519.0461     0.041384474
       2519.8458    -0.011643570
       2520.6455     0.081631888
       2521.4452      0.11135290
       2522.2449      0.12080587
       2523.0446     0.060160582
       2523.8443     0.073274065
       2524.6439     0.036800959
       2525.4436     0.058953080
       2526.2433      0.10412300
       2527.0430     0.058406050
       2527.8427     0.016766297
       2528.6424      0.10081325
       2529.4421     0.057470159
       2530.2418     0.044458725
       2531.0415    -0.025236959
       2531.8412     0.034707359
       2532.6408     0.057249400
       2533.4405     0.026132533
       2534.2402     0.044468650
       2535.0399      0.11788043
       2535.8396    0.0037856278
       2536.6393     0.067240504
       2537.4390     0.071451921
       2538.2387     0.052856038
       2539.0384    0.0047723271
       2539.8381     0.068105197
       2540.6377     0.047981792
       2541.4374    0.0072123080
       2542.2371      0.11737164
       2543.0368     0.072830979
       2543.8365     0.010323781
       2544.6362     0.049095382
       2545.4359    0.0021024371
       2546.2356     0.086250172
       2547.0353     0.034527504
       2547.8350     0.090990909
       2548.6346     0.039998943
       2549.4343     0.060014259
       2550.2340     0.061286957
       2551.0337     0.050924827
       2551.8334     0.029745134
       2552.6331     0.054352084
       2553.4328     0.048583769
       2554.2325      0.17944309
       2555.0322     0.079128882
       2555.8319      0.10958341
       2556.6315     0.076494841
       2557.4312     0.055751159
       2558.2309      0.11180526
       2559.0306     0.025724747
       2559.8303     0.024204884
       2560.6300      0.17630469
       2561.4297      0.10917148
       2562.2294     0.068236446
       2563.0291     0.052459534
       2563.8288     0.077911978
       2564.6284     0.049329625
       2565.4281    -0.030929594
       2566.2278    -0.024641685
       2567.0275     0.026262275
       2567.8272     0.047943758
       2568.6269    0.0013055869
       2569.4266      0.11961580
       2570.2263     0.092396194
       2571.0260    0.0080137125
       2571.8257     0.041667974
       2572.6253     0.013338983
       2573.4250     0.020116942
       2574.2247     0.041061516
       2575.0244     0.032814223
       2575.8241     0.087588030
       2576.6238     0.065058144
       2577.4235     0.074952023
       2578.2232     0.067282872
       2579.0229     0.092701953
       2579.8226     0.058178053
       2580.6222     0.065278567
       2581.4219     0.022223881
       2582.2216     0.060820944
       2583.0213     0.044195668
       2583.8210  -0.00040333535
       2584.6207     0.038367514
       2585.4204     0.037680693
       2586.2201     0.064192188
       2587.0198     0.016991598
       2587.8195     0.088722574
       2588.6191    -0.035013985
       2589.4188     0.022524170
       2590.2185     0.049708986
       2591.0182     0.027658545
       2591.8179     0.036436226
       2592.6176     0.010812360
       2593.4173   -0.0031940472
       2594.2170     0.036515604
       2595.0167     0.050086966
       2595.8164     0.065577494
       2596.6160     0.049920917
       2597.4157     0.066404687
       2598.2154     0.039018361
       2599.0151     0.016817311
       2599.8148     0.035251002
       2600.6145     0.066349433
       2601.4142     0.048684485
       2602.2139     0.031463954
       2603.0136     0.048983790
       2603.8133     0.072694351
       2604.6129     0.060973681
       2605.4126     0.045212410
       2606.2123     0.043501555
       2607.0120     0.089358416
       2607.8117     0.037364997
       2608.6114     0.039737808
       2609.4111     0.094118790
       2610.2108    0.0018153853
       2611.0105      0.12554710
       2611.8102     0.089959411
       2612.6098      0.16714797
       2613.4095   -0.0024655733
       2614.2092     0.065382970
       2615.0089    -0.013442234
       2615.8086    -0.038164704
       2616.6083     0.079359221
       2617.4080     0.067913886
       2618.2077     0.025289606
       2619.0074      0.14625432
       2619.8071     0.066871085
       2620.6067     0.061958947
       2621.4064      0.10779126
       2622.2061     0.060005398
       2623.0058     0.095556676
       2623.8055     0.010274135
       2624.6052     0.068529513
       2625.4049      0.11886814
       2626.2046     0.049438658
       2627.0043     0.014021010
       2627.8040     0.066675089
       2628.6036     0.050454654
       2629.4033     0.034591875
       2630.2030     0.035034680
       2631.0027     0.069508127
       2631.8024     0.027659725
       2632.6021     0.043205338
       2633.4018     0.034136872
       2634.2015     0.032820270
       2635.0012     0.057486317
       2635.8009     0.071841318
       2636.6005     0.056194651
       2637.4002      0.11729166
       2638.1999     0.074983921
       2638.9996     0.066599768
       2639.7993     0.031960416
       2640.5990     0.057282471
       2641.3987     0.096967767
       2642.1984    -0.023795771
       2642.9981     0.097702322
       2643.7978     0.099387015
       2644.5974     0.089561018
       2645.3971  -0.00041856507
       2646.1968     0.089928946
       2646.9965     0.011005518
       2647.7962     0.072599696
       2648.5959     0.066156780
       2649.3956     0.079967911
       2650.1953     0.030632220
       2650.9950     0.045512676
       2651.7947     0.063923921
       2652.5943     0.074114295
       2653.3940     0.082631999
       2654.1937     0.068334350
       2654.9934     0.069101199
       2655.7931     0.092690112
       2656.5928     0.065670540
       2657.3925     0.078115304
       2658.1922      0.10792809
       2658.9919      0.10506661
       2659.7916      0.10132473
       2660.5912    0.0085586465
       2661.3909     0.021863744
       2662.1906     0.066076289
       2662.9903     0.029290127
       2663.7900      0.13881677
       2664.5897      0.10279121
       2665.3894     0.094990557
       2666.1891     0.034935671
       2666.9888     0.061749711
       2667.7885   -0.0034926868
       2668.5881     0.047097641
       2669.3878     0.077620268
       2670.1875     0.090192838
       2670.9872      0.11876536
       2671.7869     0.020666113
       2672.5866     0.017234763
       2673.3863     0.049197461
       2674.1860     0.018145487
       2674.9857     0.067953715
       2675.7854     0.067612497
       2676.5851     0.045390858
       2677.3847     0.044536138
       2678.1844      0.14073214
       2678.9841     0.051225105
       2679.7838      0.10858229
       2680.5835     0.015194350
       2681.3832      0.14794063
       2682.1829     0.065241281
       2682.9826      0.13108604
       2683.7823   -0.0094399073
       2684.5820     0.053673353
       2685.3816     0.041964659
       2686.1813     0.027094502
       2686.9810     0.070805597
       2687.7807     0.093379020
       2688.5804     0.061019457
       2689.3801      0.12936138
       2690.1798     0.088201989
       2690.9795     0.019896173
       2691.7792     0.047153306
       2692.5789      0.13472998
       2693.3785      0.12094835
       2694.1782     0.039992273
       2694.9779     0.077062981
       2695.7776     0.090591452
       2696.5773      0.12033561
       2697.3770     0.089269716
       2698.1767      0.12930162
       2698.9764     0.017789625
       2699.7761     0.074279974
       2700.5758      0.11565142
       2701.3754     0.048675321
       2702.1751      0.11928982
       2702.9748      0.11532419
       2703.7745     0.053292959
       2704.5742      0.13116341
       2705.3739     0.061480789
       2706.1736     0.077322784
       2706.9733     0.082214644
       2707.7730     0.093422952
       2708.5727      0.13174415
       2709.3723      0.11841392
       2710.1720     0.099250682
       2710.9717     0.082849791
       2711.7714     0.078595846
       2712.5711     0.050219709
       2713.3708     0.056091398
       2714.1705     0.060028145
       2714.9702     0.071865743
       2715.7699     0.082579344
       2716.5696     0.020136488
       2717.3692     0.056518351
       2718.1689     0.038943139
       2718.9686     0.091030379
       2719.7683     0.062481577
       2720.5680     0.076105454
       2721.3677   -0.0088531701
       2722.1674     0.049902800
       2722.9671     0.044921867
       2723.7668     0.085076256
       2724.5665     0.070021286
       2725.3661     0.081289982
       2726.1658     0.086523841
       2726.9655     0.049283454
       2727.7652      0.10096030
       2728.5649     0.041146814
       2729.3646     0.093767201
       2730.1643     0.079150814
       2730.9640      0.16678474
       2731.7637     0.056122381
       2732.5634      0.17556526
       2733.3630      0.11222246
       2734.1627      0.10609510
       2734.9624      0.14802101
       2735.7621      0.11636731
       2736.5618      0.10496369
       2737.3615     0.013756186
       2738.1612     0.038332901
       2738.9609     0.070823331
       2739.7606      0.14253599
       2740.5603     0.070950517
       2741.3599     0.054138358
       2742.1596     0.047642993
       2742.9593      0.10567570
       2743.7590      0.14703047
       2744.5587     0.024356426
       2745.3584      0.10246220
       2746.1581     0.066712341
       2746.9578     0.082753491
       2747.7575     0.081261572
       2748.5572     0.049520605
       2749.3568     0.063479784
       2750.1565     0.067794029
       2750.9562      0.12957200
       2751.7559      0.11919613
       2752.5556     0.060797419
       2753.3553     0.070487387
       2754.1550     0.082992793
       2754.9547     0.018763095
       2755.7544      0.13393826
       2756.5541      0.11626695
       2757.3537      0.14047266
       2758.1534     0.074470827
       2758.9531     0.023756003
       2759.7528     0.064149490
       2760.5525     0.069591768
       2761.3522     0.084426300
       2762.1519     0.069413631
       2762.9516     0.036998626
       2763.7513      0.13639351
       2764.5510     0.083559307
       2765.3506     0.046547534
       2766.1503     0.070438349
       2766.9500     0.091778280
       2767.7497     0.029095466
       2768.5494     0.045711993
       2769.3491      0.10952445
       2770.1488     0.055299798
       2770.9485     0.069865124
       2771.7482      0.13867626
       2772.5479      0.10559518
       2773.3475     0.064142756
       2774.1472      0.16517238
       2774.9469     0.056512052
       2775.7466      0.10132865
       2776.5463     0.046537397
       2777.3460     0.013359523
       2778.1457     0.065534202
       2778.9454     0.094747143
       2779.7451     0.099459119
       2780.5448     0.067979415
       2781.3444     0.070326569
       2782.1441     0.094530584
       2782.9438     0.040456032
       2783.7435     0.045360250
       2784.5432     0.043516420
       2785.3429     0.094118601
       2786.1426     0.059448376
       2786.9423     0.055218558
       2787.7420      0.15327001
       2788.5417     0.057598933
       2789.3413     0.050328258
       2790.1410     0.094127212
       2790.9407      0.10681736
       2791.7404     0.084202896
       2792.5401     0.046728184
       2793.3398     0.037527205
       2794.1395     0.085323155
       2794.9392     0.033897312
       2795.7389     0.088382831
       2796.5386     0.064801209
       2797.3382     0.048174200
       2798.1379     0.082820122
       2798.9376     0.044239092
       2799.7373     0.081655853
       2800.5370     0.086596751
