# wavelength flux
       2582.5298     0.061421786
       2583.4187      0.14037161
       2584.3077      0.13310860
       2585.1966    -0.013427109
       2586.0856     0.020348825
       2586.9745     0.080113387
       2587.8635    -0.033461797
       2588.7524     0.019274269
       2589.6414   -0.0032664343
       2590.5303    -0.028846929
       2591.4193    -0.050686454
       2592.3082      0.11490954
       2593.1972      0.12024338
       2594.0861      0.15287061
       2594.9750     0.037229970
       2595.8640      0.14559813
       2596.7529      0.18631062
       2597.6419     0.068124197
       2598.5308     0.048198415
       2599.4198      0.12881183
       2600.3087      0.12074098
       2601.1977      0.11543608
       2602.0866      0.13802850
       2602.9756     0.025741474
       2603.8645    -0.044426890
       2604.7535    -0.091828554
       2605.6424    -0.036166597
       2606.5313      0.14272305
       2607.4203      0.22201736
       2608.3092      0.30333050
       2609.1982      0.18187175
       2610.0871     0.026972737
       2610.9761     0.070451101
       2611.8650      0.14542368
       2612.7540     0.018081059
       2613.6429      0.13928228
       2614.5319     0.072865711
       2615.4208      0.15593342
       2616.3098      0.16642083
       2617.1987      0.20093547
       2618.0877     0.063129860
       2618.9766     0.011638239
       2619.8655    -0.067077215
       2620.7545   -0.0061359472
       2621.6434      0.15248337
       2622.5324     0.096778344
       2623.4213      0.12644294
       2624.3103      0.11441392
       2625.1992     0.074525736
       2626.0882      0.14362291
       2626.9771     0.097774932
       2627.8661     0.048040025
       2628.7550     0.096285078
       2629.6440     0.016035565
       2630.5329     -0.15639298
       2631.4218     -0.10227402
       2632.3108      0.25034890
       2633.1997      0.18894425
       2634.0887      0.20702596
       2634.9776     0.087724210
       2635.8666      0.14544540
       2636.7555     0.044718208
       2637.6445    0.0041278648
       2638.5334      0.10358604
       2639.4224      0.14857658
       2640.3113      0.10949537
       2641.2003     0.040728693
       2642.0892   -0.0036655993
       2642.9781     0.071970931
       2643.8671      0.12464319
       2644.7560     0.061520560
       2645.6450    -0.042478471
       2646.5339      0.12246379
       2647.4229     0.074698929
       2648.3118     0.098879382
       2649.2008      0.24479469
       2650.0897    0.0075681662
       2650.9787   -0.0070708549
       2651.8676     0.020953716
       2652.7566     -0.11888976
       2653.6455    -0.055156955
       2654.5345     0.058693805
       2655.4234     0.061057808
       2656.3123      0.13230253
       2657.2013     0.035992369
       2658.0902    -0.040291661
       2658.9792      0.19702234
       2659.8681      0.12172830
       2660.7571    -0.075259384
       2661.6460     0.054064709
       2662.5350      0.13568067
       2663.4239      0.11517804
       2664.3129     0.094737231
       2665.2018      0.11289397
       2666.0908      0.10574966
       2666.9797    -0.019821501
       2667.8686     0.050727011
       2668.7576      0.15967333
       2669.6465     0.069104734
       2670.5355     0.080032363
       2671.4244      0.24138866
       2672.3134      0.20654500
       2673.2023     0.025677526
       2674.0913     0.045807365
       2674.9802     0.061552260
       2675.8692      0.14076936
       2676.7581     0.088401900
       2677.6471    -0.066577527
       2678.5360      0.10624907
       2679.4249      0.19269048
       2680.3139      0.25916951
       2681.2028      0.18282816
       2682.0918      0.11961099
       2682.9807      0.15664967
       2683.8697      0.29741645
       2684.7586      0.21746815
       2685.6476      0.17386268
       2686.5365   -0.0084059701
       2687.4255      0.11711187
       2688.3144      0.21762162
       2689.2034     0.051674493
       2690.0923     0.027453933
       2690.9812     0.035208042
       2691.8702     0.079610084
       2692.7591      0.19768536
       2693.6481      0.13992353
       2694.5370      0.12407382
       2695.4260      0.16722147
       2696.3149    0.0074160585
       2697.2039    -0.026159554
       2698.0928   -0.0089996979
       2698.9818      0.14169934
       2699.8707     0.058363653
       2700.7597     0.046365089
       2701.6486      0.10614875
       2702.5376      0.18862870
       2703.4265     0.025738709
       2704.3154     0.027977819
       2705.2044      0.13005839
       2706.0933      0.13103136
       2706.9823     0.043493778
       2707.8712  -0.00055464786
       2708.7602     0.043240964
       2709.6491      0.15396923
       2710.5381      0.16645139
       2711.4270    -0.019816521
       2712.3160     0.079120307
       2713.2049      0.11591519
       2714.0939     0.083394554
       2714.9828     0.046610884
       2715.8717     0.033430228
       2716.7607    0.0012339922
       2717.6496      0.11283324
       2718.5386      0.12258911
       2719.4275      0.11316180
       2720.3165     0.025382075
       2721.2054     0.072240854
       2722.0944     0.058741262
       2722.9833      0.15791179
       2723.8723      0.18159125
       2724.7612     0.019737297
       2725.6502    0.0078732852
       2726.5391     0.052631166
       2727.4280     0.051876019
       2728.3170   -0.0033728151
       2729.2059     0.090940685
       2730.0949   -0.0030916260
       2730.9838     0.082747878
       2731.8728      0.10768463
       2732.7617     0.064736932
       2733.6507    -0.038671026
       2734.5396    -0.011347981
       2735.4286     0.067626664
       2736.3175      0.14804580
       2737.2065     0.032056433
       2738.0954     0.025592958
       2738.9844     0.028039330
       2739.8733     0.092722168
       2740.7622     0.029966471
       2741.6512     0.035927864
       2742.5401     0.093422774
       2743.4291     0.095626344
       2744.3180      0.15438132
       2745.2070      0.11241165
       2746.0959     0.085033111
       2746.9849    0.0045909758
       2747.8738     0.099489472
       2748.7628      0.10236371
       2749.6517      0.11812795
       2750.5407    -0.071518034
       2751.4296     -0.17572560
       2752.3185     -0.14087626
       2753.2075     0.015645664
       2754.0964     0.062398130
       2754.9854     0.099093391
       2755.8743     0.082529295
       2756.7633    0.0013029603
       2757.6522     0.017351344
       2758.5412     0.077281557
       2759.4301      0.11448156
       2760.3191     0.065340219
       2761.2080      0.19930967
       2762.0970      0.13654158
       2762.9859     0.069905167
       2763.8748      0.10907314
       2764.7638     0.091207159
       2765.6527     0.098626326
       2766.5417      0.14347666
       2767.4306     0.029097128
       2768.3196     0.063586590
       2769.2085     0.094363555
       2770.0975     0.071017276
       2770.9864     0.065541073
       2771.8754     0.012624337
       2772.7643      0.11931384
       2773.6533      0.10675981
       2774.5422     0.062472171
       2775.4311      0.17016018
       2776.3201      0.10515756
       2777.2090      0.12890839
       2778.0980      0.13774258
       2778.9869      0.10825709
       2779.8759     0.053543695
       2780.7648     0.097321118
       2781.6538    -0.013145342
       2782.5427    -0.075674658
       2783.4317     0.024365722
       2784.3206     0.064163865
       2785.2096     0.053982637
       2786.0985     0.082445281
       2786.9875     0.042591236
       2787.8764     0.069949794
       2788.7653     0.010601344
       2789.6543     0.087390007
       2790.5432      0.10110172
       2791.4322     0.094497398
       2792.3211     0.019489064
       2793.2101      0.13871462
       2794.0990     0.021232760
       2794.9880     0.074078362
       2795.8769     0.087057333
       2796.7659     0.066753139
       2797.6548     0.084307232
       2798.5438     0.038124508
       2799.4327      0.14687907
       2800.3216      0.21735600
       2801.2106      0.12924663
       2802.0995     0.057994246
       2802.9885     0.030517489
       2803.8774      0.11014455
       2804.7664     0.062573526
       2805.6553     0.076390617
       2806.5443      0.17515936
       2807.4332      0.14105188
       2808.3222     0.063199905
       2809.2111      0.14770514
       2810.1001      0.21352037
       2810.9890      0.10443926
       2811.8779      0.10635983
       2812.7669      0.10184833
       2813.6558     0.074396796
       2814.5448     0.060791820
       2815.4337      0.10081375
       2816.3227      0.13228091
       2817.2116      0.11268739
       2818.1006      0.14727327
       2818.9895      0.17183739
       2819.8785      0.13105150
       2820.7674     0.042986575
       2821.6564      0.14434971
       2822.5453      0.16854093
       2823.4343      0.20755735
       2824.3232      0.19619285
       2825.2121      0.10719723
       2826.1011      0.12262489
       2826.9900      0.12353659
       2827.8790     0.085799551
       2828.7679     0.097717827
       2829.6569     0.064363991
       2830.5458     0.016461407
       2831.4348      0.10590840
       2832.3237      0.17203525
       2833.2127      0.15057176
       2834.1016      0.11380502
       2834.9906      0.12869198
       2835.8795     0.086105522
       2836.7684     0.053428229
       2837.6574      0.13084442
       2838.5463      0.15626409
       2839.4353      0.12514615
       2840.3242     0.084011979
       2841.2132      0.10727864
       2842.1021      0.17800838
       2842.9911      0.12468048
       2843.8800      0.11128772
       2844.7690      0.17398008
       2845.6579      0.10624873
       2846.5469     0.066978553
       2847.4358     0.042117887
       2848.3247      0.13090130
       2849.2137      0.14071353
       2850.1026     0.047068101
       2850.9916   -0.0050307222
       2851.8805     0.080453001
       2852.7695      0.12578859
       2853.6584     0.055681823
       2854.5474      0.11401024
       2855.4363      0.10189246
       2856.3253     0.051236636
       2857.2142     0.021865064
       2858.1032   -0.0068269305
       2858.9921     0.013423812
       2859.8810      0.11123568
       2860.7700      0.20073373
       2861.6589      0.11010134
       2862.5479      0.12271988
       2863.4368      0.14527068
       2864.3258      0.10370876
       2865.2147     0.087404545
       2866.1037      0.11043792
       2866.9926     0.078957973
       2867.8816     0.077819091
       2868.7705      0.10590785
       2869.6595     0.062871020
       2870.5484      0.11679457
       2871.4374      0.14395195
       2872.3263      0.16894099
       2873.2152      0.12300430
       2874.1042      0.11724542
       2874.9931      0.11106454
       2875.8821      0.13659955
       2876.7710     0.099096289
       2877.6600      0.10330326
       2878.5489      0.13910227
       2879.4379      0.15934575
       2880.3268     0.096463166
       2881.2158     0.059253034
       2882.1047     0.010451863
       2882.9937     0.067909013
       2883.8826     0.073731336
       2884.7715      0.10466243
       2885.6605      0.10314181
       2886.5494      0.11446182
       2887.4384      0.13650404
       2888.3273      0.11736793
       2889.2163     0.086501808
       2890.1052     0.073394488
       2890.9942      0.10654736
       2891.8831      0.12364073
       2892.7721     0.057017655
       2893.6610     0.083055269
       2894.5500      0.12117317
       2895.4389      0.15371737
       2896.3278      0.15734666
       2897.2168      0.11446754
       2898.1057     0.089549743
       2898.9947      0.18314143
       2899.8836      0.11932610
       2900.7726     0.090945487
       2901.6615      0.17001317
       2902.5505      0.11417848
       2903.4394      0.10440600
       2904.3284     0.098046561
       2905.2173      0.10752684
       2906.1063      0.20708335
       2906.9952      0.14336967
       2907.8842      0.14020164
       2908.7731      0.12583247
       2909.6620      0.18822890
       2910.5510      0.21484963
       2911.4399      0.23140616
       2912.3289      0.22412347
       2913.2178     0.083968962
       2914.1068      0.21945088
       2914.9957      0.21468987
       2915.8847      0.22844375
       2916.7736      0.17208585
       2917.6626      0.15265649
       2918.5515      0.17367064
       2919.4405      0.20001338
       2920.3294      0.10112220
       2921.2183      0.11306465
       2922.1073     0.076320237
       2922.9962      0.16313141
       2923.8852      0.11561294
       2924.7741      0.13543419
       2925.6631     0.039765499
       2926.5520      0.16555763
       2927.4410      0.17359857
       2928.3299      0.14817497
       2929.2189      0.15353958
       2930.1078      0.14276904
       2930.9968      0.12802044
       2931.8857      0.11943507
       2932.7746      0.13953003
       2933.6636      0.18315882
       2934.5525      0.11961381
       2935.4415     0.090234951
       2936.3304      0.12823093
       2937.2194      0.12476501
       2938.1083      0.11545767
       2938.9973     0.090065718
       2939.8862      0.15094644
       2940.7752      0.22353211
       2941.6641      0.15735360
       2942.5531      0.16252327
       2943.4420      0.15594100
       2944.3309      0.16737645
       2945.2199      0.15939944
       2946.1088      0.13140603
       2946.9978      0.11709384
       2947.8867      0.13126777
       2948.7757      0.21318230
       2949.6646      0.16859177
       2950.5536      0.15061521
       2951.4425      0.13332723
       2952.3315      0.14203923
       2953.2204      0.10511799
       2954.1094      0.13895204
       2954.9983      0.12508715
       2955.8873     0.092968092
       2956.7762      0.15809051
       2957.6651      0.12024292
       2958.5541      0.12061167
       2959.4430     0.074511434
       2960.3320      0.17706278
       2961.2209      0.14459166
       2962.1099      0.15201572
       2962.9988      0.12863464
       2963.8878      0.15933863
       2964.7767     0.085746550
       2965.6657     0.097178743
       2966.5546     0.094032199
       2967.4436      0.14334448
       2968.3325      0.11363413
       2969.2214     0.074088112
       2970.1104     0.083914839
       2970.9993      0.19022481
       2971.8883      0.13286069
       2972.7772      0.10416603
       2973.6662     0.079012715
       2974.5551      0.17140455
       2975.4441      0.18587565
       2976.3330      0.19890018
       2977.2220      0.15073353
       2978.1109      0.14932810
       2978.9999      0.10882377
       2979.8888      0.18320574
       2980.7777      0.17365499
       2981.6667      0.16756111
       2982.5556      0.15009685
       2983.4446     0.060302910
       2984.3335     0.073185311
       2985.2225      0.11909453
       2986.1114      0.16852491
       2987.0004     0.050216645
       2987.8893     0.088307999
       2988.7783      0.13013449
       2989.6672      0.17968136
       2990.5562      0.15521637
       2991.4451      0.17004738
       2992.3341      0.16820221
       2993.2230      0.15941952
       2994.1119      0.16880891
       2995.0009      0.16101260
       2995.8898      0.10488367
       2996.7788      0.22796639
       2997.6677      0.19167138
       2998.5567      0.18430859
       2999.4456      0.23242541
       3000.3346      0.18781100
       3001.2235      0.18994564
       3002.1125      0.14437375
       3003.0014     0.075980210
       3003.8904      0.13139040
       3004.7793     0.093578944
       3005.6682      0.12167502
       3006.5572      0.13580785
       3007.4461     0.061059954
       3008.3351      0.14405908
       3009.2240      0.16943595
       3010.1130      0.10701204
       3011.0019      0.13351291
       3011.8909      0.14123507
       3012.7798      0.19702992
       3013.6688      0.12579775
       3014.5577      0.18184339
       3015.4467      0.19887639
       3016.3356     0.072807160
       3017.2245      0.11168184
       3018.1135      0.13170303
       3019.0024      0.20565747
       3019.8914      0.15484097
       3020.7803     0.078090596
       3021.6693      0.10923893
       3022.5582     0.095553639
       3023.4472      0.21718798
       3024.3361      0.17823701
       3025.2251      0.13139069
       3026.1140      0.17923896
       3027.0030      0.15050327
       3027.8919      0.14465124
       3028.7808      0.17138643
       3029.6698      0.13950890
       3030.5587      0.16411499
       3031.4477      0.19250672
       3032.3366      0.14393712
       3033.2256      0.13892047
       3034.1145      0.15750674
       3035.0035      0.23630983
       3035.8924      0.24022483
       3036.7814      0.19292099
       3037.6703      0.12712310
       3038.5593      0.14606865
       3039.4482      0.20074051
       3040.3372      0.17318660
       3041.2261      0.15578043
       3042.1150      0.13057512
       3043.0040      0.14734818
       3043.8929      0.18881554
       3044.7819      0.20042311
       3045.6708      0.14224066
       3046.5598      0.16367075
       3047.4487      0.20335148
       3048.3377      0.21290938
       3049.2266      0.15106190
       3050.1156      0.11228396
       3051.0045      0.19106701
       3051.8935      0.21245090
       3052.7824      0.13588459
       3053.6713      0.14713132
       3054.5603      0.16645283
       3055.4492      0.16548738
       3056.3382      0.17501614
       3057.2271      0.13496451
       3058.1161     0.080561839
       3059.0050     0.091676756
       3059.8940      0.15188350
       3060.7829      0.17779666
       3061.6719      0.16715833
       3062.5608      0.13121377
       3063.4498      0.17984534
       3064.3387      0.15283975
       3065.2276      0.20388146
       3066.1166      0.18041545
       3067.0055      0.22683497
       3067.8945      0.14208506
       3068.7834      0.16358840
       3069.6724      0.13013327
       3070.5613      0.12589073
       3071.4503     0.097439744
       3072.3392      0.10077567
       3073.2282      0.16636651
       3074.1171      0.17669403
       3075.0061      0.18743480
       3075.8950      0.16503885
       3076.7840     0.097996776
       3077.6729      0.21879952
       3078.5618      0.17264212
       3079.4508      0.20736303
       3080.3397      0.13862580
       3081.2287      0.19466741
       3082.1176      0.16253446
       3083.0066      0.17321791
       3083.8955      0.16668743
       3084.7845      0.17013636
       3085.6734      0.18098158
       3086.5624      0.15690254
       3087.4513      0.17825487
       3088.3403      0.17380489
       3089.2292      0.16666001
       3090.1181      0.14238316
       3091.0071      0.15836890
       3091.8960      0.14180270
       3092.7850      0.15952806
       3093.6739      0.17631139
       3094.5629      0.14072735
       3095.4518      0.14604949
       3096.3408      0.20688481
       3097.2297      0.13289532
       3098.1187     0.091708217
       3099.0076      0.11825510
       3099.8966      0.16970748
       3100.7855     0.098520559
       3101.6744      0.13846492
       3102.5634      0.13664726
       3103.4523     0.085806416
       3104.3413      0.14975675
       3105.2302      0.15844746
       3106.1192      0.19328620
       3107.0081      0.18107718
       3107.8971      0.17291709
       3108.7860      0.18143491
       3109.6750      0.15761205
       3110.5639      0.13978505
       3111.4529      0.16070961
       3112.3418      0.25915272
       3113.2307      0.16703462
       3114.1197      0.12219783
       3115.0086      0.12069566
       3115.8976      0.19258382
       3116.7865      0.25227745
       3117.6755      0.18677937
       3118.5644      0.16498972
       3119.4534      0.14963114
