# wavelength flux
       2841.0993     0.023838341
       2842.0606     0.038543897
       2843.0218    -0.024259169
       2843.9831    -0.015486999
       2844.9444      0.14948003
       2845.9056   -0.0048034412
       2846.8669    -0.072916369
       2847.8282    -0.060107680
       2848.7894     0.036179218
       2849.7507     0.053892400
       2850.7120     0.034219913
       2851.6732      0.11284630
       2852.6345     0.056765591
       2853.5958     0.071227514
       2854.5570     0.063729616
       2855.5183      0.17435708
       2856.4796      0.10477033
       2857.4408     0.079140477
       2858.4021     0.016422630
       2859.3634      0.11730713
       2860.3246      0.17450209
       2861.2859   0.00025302604
       2862.2472    0.0028378340
       2863.2084     0.029585387
       2864.1697     0.026161612
       2865.1310     0.015791509
       2866.0922     0.064550975
       2867.0535     0.032837889
       2868.0148     0.011216522
       2868.9760      0.10359838
       2869.9373     0.084462579
       2870.8986     0.014707902
       2871.8598      0.10765838
       2872.8211     0.029228591
       2873.7824      0.13065573
       2874.7436     0.014565433
       2875.7049     0.038245783
       2876.6662     0.039500192
       2877.6274     0.073438073
       2878.5887     0.080617410
       2879.5500      0.10197096
       2880.5112      0.14217798
       2881.4725     0.018373472
       2882.4338      0.13200551
       2883.3950      0.15251280
       2884.3563     0.082390989
       2885.3176    0.0051501213
       2886.2788      0.10299455
       2887.2401     0.036299663
       2888.2014     0.079065161
       2889.1626     0.039522588
       2890.1239     0.052119403
       2891.0852      0.10267166
       2892.0464      0.11326610
       2893.0077     0.018734582
       2893.9690  -0.00075571151
       2894.9302      0.13842590
       2895.8915     0.082430581
       2896.8528     0.061557159
       2897.8140     0.018672892
       2898.7753      0.13764237
       2899.7366    0.0025824897
       2900.6978   -0.0021882654
       2901.6591     0.083529903
       2902.6204    -0.010602930
       2903.5816     0.025000002
       2904.5429      0.14746478
       2905.5042     0.089579426
       2906.4654      0.16724772
       2907.4267     0.070626193
       2908.3880      0.15344723
       2909.3492     0.067146017
       2910.3105     0.038296605
       2911.2718      0.12077050
       2912.2330   -0.0055662678
       2913.1943      0.10852607
       2914.1556     0.075511570
       2915.1168      0.19280900
       2916.0781     0.069483489
       2917.0394      0.11633213
       2918.0006     0.045666533
       2918.9619     0.094988667
       2919.9232     0.039350360
       2920.8844     0.064981792
       2921.8457    -0.020061102
       2922.8070      0.12368412
       2923.7682     0.035826278
       2924.7295     0.042785284
       2925.6908     0.029461415
       2926.6520   -0.0064874326
       2927.6133     0.041553787
       2928.5746     0.091935148
       2929.5358   -0.0087748887
       2930.4971     0.038073131
       2931.4584     0.019934767
       2932.4196     0.040454715
       2933.3809     0.063975494
       2934.3422      0.12641323
       2935.3034     0.031872884
       2936.2647      0.17068296
       2937.2260     0.088790358
       2938.1872     0.021644251
       2939.1485     0.094629257
       2940.1098     0.039645692
       2941.0710     0.017381071
       2942.0323     0.049966717
       2942.9936     0.061866406
       2943.9548     0.086990435
       2944.9161     0.051374605
       2945.8774     0.033022578
       2946.8386      0.13576097
       2947.7999     0.073860505
       2948.7612     0.061667976
       2949.7224      0.11541752
       2950.6837     0.072436508
       2951.6450     0.025626836
       2952.6062     0.073233192
       2953.5675      0.10498622
       2954.5288      0.12147453
       2955.4900      0.13513436
       2956.4513      0.11811660
       2957.4126      0.17243413
       2958.3738     0.075131934
       2959.3351     0.080859177
       2960.2964     0.060126596
       2961.2576     0.039214839
       2962.2189    -0.079655702
       2963.1802     0.047197149
       2964.1414     0.034671608
       2965.1027     0.011653850
       2966.0640    0.0017219205
       2967.0252     0.098979592
       2967.9865      0.10518233
       2968.9478   -0.0022781518
       2969.9090     0.076616799
       2970.8703     0.099160011
       2971.8316     0.096248833
       2972.7928     0.054267497
       2973.7541    0.0079578858
       2974.7154     0.067585698
       2975.6766     0.082704931
       2976.6379     0.075358341
       2977.5992     0.036948378
       2978.5604      0.14207640
       2979.5217     0.090516295
       2980.4830      0.16296056
       2981.4442      0.17027712
       2982.4055      0.11398967
       2983.3668     0.047527173
       2984.3280     0.018186221
       2985.2893     0.047384519
       2986.2506     0.056158650
       2987.2118      0.12627245
       2988.1731    0.0027097271
       2989.1344     0.013414516
       2990.0956      0.10166559
       2991.0569      0.14143376
       2992.0182     0.050390102
       2992.9794     0.018808133
       2993.9407     0.094295755
       2994.9020     0.017787225
       2995.8632      0.13663851
       2996.8245     0.090652300
       2997.7858     0.037069968
       2998.7470   -0.0085951551
       2999.7083     0.042832546
       3000.6696     0.074166444
       3001.6308     0.018277651
       3002.5921     0.043474337
       3003.5534     0.093924152
       3004.5146     0.014583017
       3005.4759     0.047882941
       3006.4372     0.052313307
       3007.3984     0.074107456
       3008.3597     0.060866092
       3009.3210     0.012136620
       3010.2822    0.0096287481
       3011.2435     0.045022172
       3012.2048     0.021444798
       3013.1660     0.050136829
       3014.1273     0.071797592
       3015.0886     0.025968867
       3016.0498     0.055175053
       3017.0111     0.079962182
       3017.9724     0.073119021
       3018.9336     0.057422837
       3019.8949     0.059369909
       3020.8562     0.033827887
       3021.8174     0.059215525
       3022.7787     0.079230937
       3023.7400     0.083643306
       3024.7012     0.052538084
       3025.6625     0.068194722
       3026.6238     0.036038400
       3027.5850     0.082709921
       3028.5463     0.073857984
       3029.5076     0.062896426
       3030.4688     0.069815182
       3031.4301     0.047450012
       3032.3914     0.047524944
       3033.3526     0.062585331
       3034.3139    -0.024091639
       3035.2752     0.053578184
       3036.2364   -0.0060851187
       3037.1977     0.073490372
       3038.1590     0.045767627
       3039.1202     0.031471510
       3040.0815     0.012897260
       3041.0428  -0.00059566081
       3042.0040     0.059238911
       3042.9653     0.043776250
       3043.9266     0.032740988
       3044.8878     0.035604735
       3045.8491     0.031220912
       3046.8104     0.069064852
       3047.7716     0.043266726
       3048.7329      0.11299506
       3049.6942     0.031733206
       3050.6554     0.012471883
       3051.6167      0.16088820
       3052.5780     0.089851587
       3053.5392     0.025305610
       3054.5005     0.045163925
       3055.4618     0.075860247
       3056.4230     0.058535953
       3057.3843     0.033215940
       3058.3456      0.11167413
       3059.3068     0.083490681
       3060.2681     0.069566745
       3061.2294     0.040805730
       3062.1906     0.019823163
       3063.1519     0.087554531
       3064.1132      0.10284867
       3065.0744     0.058110301
       3066.0357     0.045048156
       3066.9970     0.048197432
       3067.9582     0.062126039
       3068.9195     0.056693386
       3069.8808     0.052802614
       3070.8420     0.093530013
       3071.8033     0.055659625
       3072.7646   -0.0013921800
       3073.7258     0.077126035
       3074.6871     0.031369243
       3075.6484     0.040734067
       3076.6096     0.030932579
       3077.5709     0.072288785
       3078.5322     0.091403450
       3079.4934     0.040857980
       3080.4547    -0.018262022
       3081.4160      0.10482872
       3082.3772     0.043568710
       3083.3385     0.089440042
       3084.2998    -0.014632171
       3085.2610     0.094868802
       3086.2223     0.023965570
       3087.1836     0.079729341
       3088.1448     0.041185084
       3089.1061     0.048294624
       3090.0674     0.030549685
       3091.0286     0.080576498
       3091.9899     0.022813498
       3092.9512     0.070826779
       3093.9124   0.00081144674
       3094.8737     0.054267492
       3095.8350     0.051069319
       3096.7962      0.10233906
       3097.7575     0.095335698
       3098.7188     0.076687577
       3099.6800     0.071800629
       3100.6413     0.051989505
       3101.6026    -0.040563315
       3102.5638     0.054305322
       3103.5251     0.098218066
       3104.4864     0.046649036
       3105.4476     0.061955554
       3106.4089     0.035046618
       3107.3702     0.033472445
       3108.3314     0.067954905
       3109.2927     0.036462015
       3110.2540     0.030914249
       3111.2152      0.11969718
       3112.1765     0.037131546
       3113.1378     0.020818063
       3114.0990     0.030782152
       3115.0603     0.043113481
       3116.0216     0.022310970
       3116.9828     0.070571216
       3117.9441      0.15210131
       3118.9054     0.011286489
       3119.8666     0.078886925
       3120.8279     0.021015270
       3121.7892     0.012801683
       3122.7504     0.070363853
       3123.7117  -0.00014119115
       3124.6730     0.095768371
       3125.6342     0.023601269
       3126.5955     0.082897257
       3127.5568     0.062838802
       3128.5180      0.10345347
       3129.4793     0.067264999
       3130.4406     0.032571027
       3131.4018     0.076599298
       3132.3631      0.13748759
       3133.3244      0.15234657
       3134.2856     0.061081493
       3135.2469     0.068391252
       3136.2082     0.065107783
       3137.1694     0.070760954
       3138.1307     0.067151237
       3139.0920     0.058955313
       3140.0532     0.012173659
       3141.0145     0.091185855
       3141.9758     0.071785050
       3142.9370      0.11113538
       3143.8983     0.037562480
       3144.8596      0.15230728
       3145.8208     0.096327646
       3146.7821     0.046141319
       3147.7434   -0.0022195292
       3148.7046     0.065794469
       3149.6659     0.081661347
       3150.6272     0.084992724
       3151.5884     0.039595542
       3152.5497     0.091911894
       3153.5110      0.10859426
       3154.4722      0.10511495
       3155.4335     0.067372211
       3156.3948      0.11376974
       3157.3560     0.056513665
       3158.3173      0.10236543
       3159.2786     0.072628375
       3160.2398     0.021675410
       3161.2011      0.15981375
       3162.1624      0.11542038
       3163.1236     0.048354123
       3164.0849     0.072922213
       3165.0462     0.079780874
       3166.0074     0.059213439
       3166.9687     0.090805420
       3167.9300     0.066607989
       3168.8912     0.035710995
       3169.8525     0.055175708
       3170.8138     0.079611049
       3171.7750     0.037564009
       3172.7363     0.061500927
       3173.6976     0.043088670
       3174.6588     0.078432521
       3175.6201     0.069402213
       3176.5814     0.082105763
       3177.5426     0.044674611
       3178.5039    0.0045269559
       3179.4652     0.039423656
       3180.4264    0.0070955177
       3181.3877     0.043210830
       3182.3490     0.030583333
       3183.3102     0.064023039
       3184.2715     0.047092190
       3185.2328     0.088483583
       3186.1940     0.036309815
       3187.1553     0.057838787
       3188.1166     0.064963738
       3189.0778     0.060401529
       3190.0391     0.052782132
       3191.0004     0.050420581
       3191.9616     0.076192363
       3192.9229     0.057287547
       3193.8842     0.094311752
       3194.8454     0.023945722
       3195.8067     0.054029313
       3196.7680     0.062711129
       3197.7292     0.056489608
       3198.6905     0.071928427
       3199.6518     0.089760454
       3200.6130      0.10510051
       3201.5743      0.11386190
       3202.5356     0.078845776
       3203.4968     0.062672117
       3204.4581     0.083650762
       3205.4194     0.056709628
       3206.3806      0.11029477
       3207.3419     0.077166441
       3208.3032     0.061856286
       3209.2644     0.058460871
       3210.2257     0.063429198
       3211.1870     0.050404654
       3212.1482     0.033954284
       3213.1095     0.081146047
       3214.0708     0.089573618
       3215.0320     0.059206353
       3215.9933      0.11010468
       3216.9546     0.086280484
       3217.9158     0.099834487
       3218.8771   -0.0011791190
       3219.8384     0.076930682
       3220.7996     0.048487535
       3221.7609     0.058779536
       3222.7222     0.083646024
       3223.6834     0.051664257
       3224.6447     0.049583654
       3225.6060     0.091560501
       3226.5672     0.032149235
       3227.5285     0.058486914
       3228.4898     0.050216636
       3229.4510      0.11246120
       3230.4123      0.11712388
       3231.3736     0.038389375
       3232.3348     0.052161447
       3233.2961     0.094959502
       3234.2574     0.085043162
       3235.2186     0.069428137
       3236.1799     0.053928686
       3237.1412      0.11980574
       3238.1024      0.11891115
       3239.0637      0.10529179
       3240.0250     0.070160879
       3240.9862    0.0066770883
       3241.9475     0.072923953
       3242.9088     0.032004725
       3243.8700      0.10912122
       3244.8313     0.084291494
       3245.7926     0.040566039
       3246.7538     0.046158590
       3247.7151     0.089239664
       3248.6764     0.026065304
       3249.6376      0.13302437
       3250.5989     0.078873523
       3251.5602      0.10259131
       3252.5214     0.085759498
       3253.4827     0.056906037
       3254.4440     0.078225455
       3255.4052     0.059109542
       3256.3665     0.018913206
       3257.3278     0.076351021
       3258.2890     0.072864850
       3259.2503     0.084383295
       3260.2116      0.12365065
       3261.1728     0.054412449
       3262.1341      0.12468570
       3263.0954      0.15120336
       3264.0566     0.077885222
       3265.0179      0.10806790
       3265.9792     0.053624372
       3266.9404      0.10587058
       3267.9017      0.12007140
       3268.8630     0.083750651
       3269.8242     0.089268564
       3270.7855     0.017862671
       3271.7468     0.096757947
       3272.7080     0.099781515
       3273.6693     0.029748208
       3274.6306     0.053344018
       3275.5918     0.056301237
       3276.5531     0.083063071
       3277.5144    0.0058754731
       3278.4756     0.019255912
       3279.4369     0.064825887
       3280.3982     0.033117395
       3281.3594      0.10795629
       3282.3207     0.087219883
       3283.2820     0.040796546
       3284.2432     0.028967084
       3285.2045      0.10062049
       3286.1658     0.067866083
       3287.1270      0.11039044
       3288.0883      0.10774145
       3289.0496     0.040851957
       3290.0108   0.00076298307
       3290.9721     0.063424183
       3291.9334     0.066878802
       3292.8946     0.098040152
       3293.8559     0.047157915
       3294.8172     0.046399681
       3295.7784      0.10759224
       3296.7397      0.11968039
       3297.7010     0.045959117
       3298.6622      0.11831476
       3299.6235     0.099867657
       3300.5848     0.040182194
       3301.5460     0.084852906
       3302.5073      0.12444664
       3303.4686     0.065320330
       3304.4298     0.099875402
       3305.3911     0.060205989
       3306.3524     0.058931170
       3307.3136     0.091090439
       3308.2749     0.099998047
       3309.2362     0.096488353
       3310.1974     0.068808089
       3311.1587     0.067621976
       3312.1200     0.045741862
       3313.0812     0.073960978
       3314.0425     0.086787208
       3315.0038      0.11784243
       3315.9650     0.073095694
       3316.9263     0.023951309
       3317.8876     0.094246488
       3318.8488      0.11476048
       3319.8101     0.067960303
       3320.7714     0.086919039
       3321.7326     0.069903150
       3322.6939     0.095529138
       3323.6552     0.078614098
       3324.6164      0.15384794
       3325.5777     0.050561581
       3326.5390      0.10278598
       3327.5002      0.10356875
       3328.4615     0.066891355
       3329.4228      0.15514968
       3330.3840     0.087828239
       3331.3453     0.083146275
       3332.3066      0.11464450
       3333.2678      0.12657927
       3334.2291     0.094871837
       3335.1904     0.098435445
       3336.1516    0.0075607982
       3337.1129     0.061233268
       3338.0742     0.094532834
       3339.0354     0.054913032
       3339.9967     0.080910192
       3340.9580     0.028652843
       3341.9192     0.090209874
       3342.8805     0.083304232
       3343.8418     0.057425754
       3344.8030      0.10632136
       3345.7643     0.079712536
       3346.7256     0.075647592
       3347.6868      0.10934214
       3348.6481    -0.010081464
       3349.6094     0.080896714
       3350.5706     0.087655060
       3351.5319     0.031576016
       3352.4932     0.089654483
       3353.4544     0.058511828
       3354.4157     0.037625026
       3355.3770     0.062926457
       3356.3382     0.080672325
       3357.2995     0.091049826
       3358.2608     0.098762515
       3359.2220      0.10515869
       3360.1833     0.018494495
       3361.1446     0.015883318
       3362.1058     0.023824450
       3363.0671      0.10594594
       3364.0284      0.14434063
       3364.9896     0.090235665
       3365.9509     0.072570338
       3366.9122      0.10012506
       3367.8734      0.11321101
       3368.8347     0.088084088
       3369.7960     0.063447294
       3370.7572  -0.00068397346
       3371.7185     0.097489095
       3372.6798     0.043007643
       3373.6410      0.11934416
       3374.6023      0.10293833
       3375.5636      0.11880489
       3376.5248     0.064968297
       3377.4861     0.063529716
       3378.4474      0.12337265
       3379.4086     0.096813383
       3380.3699     0.083815822
       3381.3312     0.073609000
       3382.2924     0.068614936
       3383.2537     0.029481290
       3384.2150      0.13505051
       3385.1762     0.055131053
       3386.1375     0.093083130
       3387.0988     0.061136349
       3388.0600     0.095772019
       3389.0213     0.083584717
       3389.9826      0.11602928
       3390.9438     0.091313843
       3391.9051     0.071303190
       3392.8664     0.077030396
       3393.8276     0.035874940
       3394.7889     0.068415349
       3395.7502     0.087461002
       3396.7114     0.043440470
       3397.6727     0.073447846
       3398.6340     0.052008884
       3399.5952     0.093785003
       3400.5565     0.040003535
       3401.5178     0.043492094
       3402.4790     0.078104432
       3403.4403     0.061354692
       3404.4016      0.12082422
       3405.3628     0.053876210
       3406.3241     0.068412444
       3407.2854     0.044439512
       3408.2466     0.073838827
       3409.2079      0.10716538
       3410.1692     0.049712169
       3411.1304     0.086747257
       3412.0917     0.055237599
       3413.0530     0.044664920
       3414.0142      0.10176164
       3414.9755     0.089328222
       3415.9368     0.026705121
       3416.8980     0.047000246
       3417.8593     0.032936918
       3418.8206     0.085543805
       3419.7818     0.078122643
       3420.7431     0.076333141
       3421.7044     0.066425627
