# wavelength flux
       2308.6779      0.12601566
       2309.4774     0.089962296
       2310.2769     0.068439084
       2311.0765      0.11974010
       2311.8760      0.12348893
       2312.6755      0.10140894
       2313.4750     0.068181668
       2314.2745     0.047950432
       2315.0741     0.053631891
       2315.8736     0.078537831
       2316.6731     0.051858992
       2317.4726      0.17927301
       2318.2721    0.0017586891
       2319.0716     0.067766024
       2319.8712   -0.0023064205
       2320.6707      0.10382018
       2321.4702     0.062394430
       2322.2697     0.059825995
       2323.0692     0.080821861
       2323.8688    -0.079895076
       2324.6683     0.029520241
       2325.4678     0.082396600
       2326.2673     0.095775149
       2327.0668     0.054823160
       2327.8664     0.075775748
       2328.6659     0.079579488
       2329.4654     0.041250544
       2330.2649      0.15406452
       2331.0644      0.14425617
       2331.8640     0.087368365
       2332.6635     0.049561127
       2333.4630    0.0057989354
       2334.2625     0.076393218
       2335.0620      0.10574367
       2335.8616      0.13234592
       2336.6611    0.0024131141
       2337.4606   -0.0030534068
       2338.2601    -0.024575258
       2339.0596     0.054589405
       2339.8591     0.096692165
       2340.6587     0.048056268
       2341.4582     0.082721236
       2342.2577     0.098149532
       2343.0572      0.11771724
       2343.8567     0.098202592
       2344.6563     0.067009005
       2345.4558      0.12275400
       2346.2553     0.080270140
       2347.0548      0.13014005
       2347.8543     0.094336949
       2348.6539     0.081736161
       2349.4534     0.085739846
       2350.2529      0.14129830
       2351.0524      0.11491997
       2351.8519      0.11263931
       2352.6515     0.079547051
       2353.4510     0.055407218
       2354.2505     0.033241491
       2355.0500     0.055998143
       2355.8495     0.080695000
       2356.6491     0.072415572
       2357.4486     0.092326402
       2358.2481     0.039241848
       2359.0476     0.070228768
       2359.8471     0.056696269
       2360.6467     0.080013565
       2361.4462    0.0051815860
       2362.2457     0.090828978
       2363.0452      0.14155383
       2363.8447     0.045541877
       2364.6442     0.058534370
       2365.4438      0.15738381
       2366.2433     0.050985443
       2367.0428      0.11364223
       2367.8423     0.047587932
       2368.6418     0.013801408
       2369.4414      0.10596979
       2370.2409     0.093831705
       2371.0404      0.20300050
       2371.8399      0.22799274
       2372.6394     0.088449466
       2373.4390     0.096116816
       2374.2385     0.089000458
       2375.0380     0.096812315
       2375.8375      0.16631835
       2376.6370      0.19088186
       2377.4366     0.095914168
       2378.2361      0.11926646
       2379.0356      0.13956622
       2379.8351      0.11509184
       2380.6346      0.13049178
       2381.4342     0.085322556
       2382.2337     0.056822706
       2383.0332     0.018671771
       2383.8327     0.091341211
       2384.6322      0.14178858
       2385.4317     0.074203073
       2386.2313     0.081465472
       2387.0308      0.11201401
       2387.8303      0.12101003
       2388.6298     0.065925748
       2389.4293      0.10844053
       2390.2289     0.073402563
       2391.0284      0.13803875
       2391.8279      0.13290826
       2392.6274      0.12846835
       2393.4269     0.063651108
       2394.2265     0.093158743
       2395.0260     0.011847221
       2395.8255     0.087768505
       2396.6250      0.11147463
       2397.4245     0.098857401
       2398.2241     0.070147940
       2399.0236      0.12133709
       2399.8231     0.089467575
       2400.6226      0.10218870
       2401.4221      0.10291833
       2402.2217     0.077516251
       2403.0212      0.15978047
       2403.8207      0.19075115
       2404.6202     0.045447943
       2405.4197      0.11249181
       2406.2192     0.082051668
       2407.0188     0.086704032
       2407.8183      0.14065750
       2408.6178      0.14040752
       2409.4173     0.086715481
       2410.2168      0.11246057
       2411.0164      0.14144965
       2411.8159      0.14038180
       2412.6154      0.10795685
       2413.4149      0.15989154
       2414.2144      0.10650878
       2415.0140      0.11769628
       2415.8135      0.15592115
       2416.6130      0.13432856
       2417.4125      0.12867111
       2418.2120      0.13551797
       2419.0116      0.15559906
       2419.8111      0.11837916
       2420.6106      0.10998993
       2421.4101      0.16022623
       2422.2096      0.18341424
       2423.0092      0.15678805
       2423.8087     0.069801243
       2424.6082      0.16321174
       2425.4077      0.13812870
       2426.2072      0.16179934
       2427.0067      0.12855416
       2427.8063      0.18342496
       2428.6058     0.057383257
       2429.4053      0.10676474
       2430.2048      0.12922137
       2431.0043      0.22316017
       2431.8039      0.18628155
       2432.6034      0.21392406
       2433.4029      0.15067906
       2434.2024      0.16904876
       2435.0019      0.13571614
       2435.8015      0.12412717
       2436.6010      0.15192399
       2437.4005      0.10478709
       2438.2000      0.11211137
       2438.9995      0.12320238
       2439.7991      0.10849908
       2440.5986      0.16080889
       2441.3981     0.097007580
       2442.1976      0.11535717
       2442.9971     0.041727954
       2443.7967     0.052617572
       2444.5962     0.067339922
       2445.3957      0.17287955
       2446.1952      0.13232817
       2446.9947      0.15087787
       2447.7942      0.11270597
       2448.5938      0.11014497
       2449.3933      0.14699039
       2450.1928      0.12697684
       2450.9923      0.15724565
       2451.7918     0.097227811
       2452.5914      0.11496353
       2453.3909      0.16371355
       2454.1904      0.15493259
       2454.9899      0.15584859
       2455.7894      0.14650465
       2456.5890      0.20206291
       2457.3885      0.12541771
       2458.1880      0.10197361
       2458.9875      0.15529677
       2459.7870      0.14953314
       2460.5866      0.11835547
       2461.3861     0.099606057
       2462.1856      0.15631605
       2462.9851      0.16905141
       2463.7846     0.098808090
       2464.5842      0.10668693
       2465.3837     0.066880488
       2466.1832     0.091667532
       2466.9827     0.073173539
       2467.7822      0.13897382
       2468.5817      0.11660821
       2469.3813      0.18342824
       2470.1808      0.11454559
       2470.9803      0.11835172
       2471.7798      0.10921940
       2472.5793      0.14256248
       2473.3789      0.11367332
       2474.1784      0.15507377
       2474.9779      0.15332363
       2475.7774      0.16622747
       2476.5769      0.13077195
       2477.3765      0.13403794
       2478.1760      0.14196180
       2478.9755      0.10931150
       2479.7750      0.19114545
       2480.5745      0.15278724
       2481.3741      0.14355554
       2482.1736      0.15966742
       2482.9731      0.13068534
       2483.7726      0.12001286
       2484.5721      0.14916375
       2485.3717      0.16417338
       2486.1712     0.091856768
       2486.9707      0.17193358
       2487.7702      0.13169680
       2488.5697      0.11589511
       2489.3693      0.10396366
       2490.1688      0.15906387
       2490.9683      0.15232629
       2491.7678      0.11978163
       2492.5673      0.13639918
       2493.3668      0.12346832
       2494.1664      0.11203968
       2494.9659      0.17686076
       2495.7654     0.097372853
       2496.5649      0.14944438
       2497.3644     0.092604375
       2498.1640     0.084004647
       2498.9635      0.15264849
       2499.7630      0.10715587
       2500.5625      0.11976280
       2501.3620      0.13488820
       2502.1616      0.15969597
       2502.9611      0.12024164
       2503.7606     0.081356405
       2504.5601      0.13407156
       2505.3596      0.10360137
       2506.1592      0.16579443
       2506.9587      0.14076591
       2507.7582      0.10326277
       2508.5577      0.14858715
       2509.3572      0.16522560
       2510.1568      0.16244558
       2510.9563      0.15154526
       2511.7558      0.15336531
       2512.5553      0.12235048
       2513.3548      0.15182195
       2514.1543      0.17394770
       2514.9539      0.13056171
       2515.7534      0.13288220
       2516.5529      0.12055599
       2517.3524      0.13303688
       2518.1519      0.10050109
       2518.9515      0.10268552
       2519.7510      0.14066505
       2520.5505      0.10891503
       2521.3500      0.11187969
       2522.1495      0.10563792
       2522.9491     0.097481528
       2523.7486      0.13242914
       2524.5481      0.14073394
       2525.3476     0.090631963
       2526.1471      0.12680318
       2526.9467      0.12678303
       2527.7462      0.17865136
       2528.5457      0.16934128
       2529.3452      0.13735283
       2530.1447      0.10117433
       2530.9443      0.10904881
       2531.7438      0.15866244
       2532.5433      0.13838069
       2533.3428      0.14844131
       2534.1423      0.14618399
       2534.9418      0.16996447
       2535.7414      0.15498031
       2536.5409      0.15835572
       2537.3404      0.15683509
       2538.1399      0.14748058
       2538.9394      0.13385792
       2539.7390      0.18294842
       2540.5385      0.11302581
       2541.3380      0.12447648
       2542.1375      0.15478702
       2542.9370     0.061137459
       2543.7366      0.13939800
       2544.5361      0.12917289
       2545.3356      0.14069548
       2546.1351      0.17683784
       2546.9346      0.12085568
       2547.7342      0.10560537
       2548.5337      0.15599313
       2549.3332      0.19947016
       2550.1327      0.14734322
       2550.9322      0.13364200
       2551.7318      0.16156280
       2552.5313      0.13429872
       2553.3308     0.083760324
       2554.1303      0.12207817
       2554.9298      0.10031315
       2555.7293      0.14118918
       2556.5289      0.15702114
       2557.3284      0.16790464
       2558.1279      0.12290525
       2558.9274      0.12662051
       2559.7269     0.093694907
       2560.5265      0.14249307
       2561.3260      0.15391291
       2562.1255      0.19733544
       2562.9250      0.13442684
       2563.7245      0.14300929
       2564.5241      0.16613982
       2565.3236      0.18326514
       2566.1231      0.14059599
       2566.9226      0.13821038
       2567.7221      0.18313676
       2568.5217      0.14459377
       2569.3212      0.13812953
       2570.1207      0.14502539
       2570.9202      0.15718837
       2571.7197      0.15717858
       2572.5193      0.16775893
       2573.3188      0.15887167
       2574.1183      0.13589239
       2574.9178      0.12680334
       2575.7173      0.13577881
       2576.5168      0.12761216
       2577.3164      0.11520343
       2578.1159      0.19559791
       2578.9154      0.11820861
       2579.7149      0.13323487
       2580.5144      0.11027437
       2581.3140      0.13164272
       2582.1135     0.088378709
       2582.9130     0.086031733
       2583.7125      0.11118848
       2584.5120     0.092335493
       2585.3116      0.15271949
       2586.1111      0.11224693
       2586.9106      0.14654698
       2587.7101      0.13160559
       2588.5096      0.13241278
       2589.3092      0.10602975
       2590.1087      0.14497963
       2590.9082      0.17555020
       2591.7077      0.15631701
       2592.5072      0.12560076
       2593.3068      0.16873437
       2594.1063      0.16196387
       2594.9058      0.14204900
       2595.7053      0.10044714
       2596.5048      0.10479429
       2597.3043      0.16028472
       2598.1039      0.10762075
       2598.9034      0.12700320
       2599.7029      0.14081222
       2600.5024      0.13005129
       2601.3019      0.16720238
       2602.1015      0.14057986
       2602.9010      0.12586764
       2603.7005      0.15057771
       2604.5000      0.16847906
       2605.2995      0.14330230
       2606.0991      0.13585337
       2606.8986      0.11723034
       2607.6981      0.14404047
       2608.4976      0.16672146
       2609.2971      0.13460888
       2610.0967      0.14824669
       2610.8962      0.17867570
       2611.6957      0.21123857
       2612.4952      0.15247077
       2613.2947      0.13440261
       2614.0943      0.15128404
       2614.8938      0.14363834
       2615.6933      0.20039869
       2616.4928      0.17609120
       2617.2923      0.14999708
       2618.0918      0.16579513
       2618.8914      0.15444295
       2619.6909      0.19451829
       2620.4904      0.20691896
       2621.2899      0.14511752
       2622.0894      0.16865206
       2622.8890      0.19431557
       2623.6885      0.22465830
       2624.4880      0.18080609
       2625.2875      0.17327476
       2626.0870      0.19873252
       2626.8866      0.12946510
       2627.6861      0.19173818
       2628.4856      0.14917691
       2629.2851      0.11729794
       2630.0846      0.16812813
       2630.8842      0.14184169
       2631.6837      0.17479928
       2632.4832      0.17269669
       2633.2827      0.18189841
       2634.0822      0.20201227
       2634.8818      0.19135989
       2635.6813      0.15329265
       2636.4808      0.10923587
       2637.2803      0.17017516
       2638.0798      0.20337138
       2638.8794      0.18686425
       2639.6789      0.20519360
       2640.4784      0.18070390
       2641.2779      0.16050065
       2642.0774      0.20403592
       2642.8769      0.12517210
       2643.6765      0.21094911
       2644.4760      0.22549075
       2645.2755      0.22699405
       2646.0750      0.17583988
       2646.8745      0.16193254
       2647.6741      0.23628650
       2648.4736      0.17857553
       2649.2731      0.19577471
       2650.0726      0.19772538
       2650.8721      0.24206272
       2651.6717      0.22327139
       2652.4712      0.23691373
       2653.2707      0.22924038
       2654.0702      0.21449895
       2654.8697      0.19758800
       2655.6693      0.18560667
       2656.4688      0.25136042
       2657.2683      0.18652679
       2658.0678      0.20093158
       2658.8673      0.21045771
       2659.6669      0.19263621
       2660.4664      0.17635337
       2661.2659      0.14832301
       2662.0654      0.17179003
       2662.8649      0.17983368
       2663.6644      0.14441698
       2664.4640      0.18549892
       2665.2635      0.14303064
       2666.0630      0.13302731
       2666.8625      0.13507648
       2667.6620      0.20775536
       2668.4616      0.17649615
       2669.2611      0.17908704
       2670.0606      0.17482208
       2670.8601      0.20082050
       2671.6596      0.20006530
       2672.4592      0.18563715
       2673.2587      0.17579968
       2674.0582      0.15690921
       2674.8577      0.18521413
       2675.6572      0.17832114
       2676.4568      0.23724474
       2677.2563      0.16386186
       2678.0558      0.20169694
       2678.8553      0.23389579
       2679.6548      0.20944072
       2680.4544      0.21821747
       2681.2539      0.18026166
       2682.0534      0.16769512
       2682.8529      0.19979873
       2683.6524      0.21506119
       2684.4519      0.19686048
       2685.2515      0.21601615
       2686.0510      0.18676984
       2686.8505      0.18364429
       2687.6500      0.20094796
       2688.4495      0.22265075
       2689.2491      0.17389552
       2690.0486      0.17953227
       2690.8481      0.19379241
       2691.6476      0.16628334
       2692.4471      0.15677940
       2693.2467      0.19236195
       2694.0462      0.18715484
       2694.8457      0.21240963
       2695.6452      0.17582944
       2696.4447      0.19711940
       2697.2443      0.19213798
       2698.0438      0.20212346
       2698.8433      0.18037338
       2699.6428      0.15986081
       2700.4423      0.22490914
       2701.2419      0.21486451
       2702.0414      0.18741953
       2702.8409      0.16098011
       2703.6404      0.19989390
       2704.4399      0.18822164
       2705.2394      0.18493788
       2706.0390      0.18129397
       2706.8385      0.23996432
       2707.6380      0.19921793
       2708.4375      0.18489983
       2709.2370      0.20198405
       2710.0366      0.16727244
       2710.8361      0.21328572
       2711.6356      0.24898560
       2712.4351      0.23866041
       2713.2346      0.21888748
       2714.0342      0.21479469
       2714.8337      0.15013827
       2715.6332      0.19360704
       2716.4327      0.18068234
       2717.2322      0.22999719
       2718.0318      0.21107014
       2718.8313      0.18935898
       2719.6308      0.17716574
       2720.4303      0.20746975
       2721.2298      0.20923924
       2722.0294      0.17845406
       2722.8289      0.21350437
       2723.6284      0.21756737
       2724.4279      0.20354189
       2725.2274      0.17348895
       2726.0269      0.20157341
       2726.8265      0.20279914
       2727.6260      0.19689820
       2728.4255      0.19868730
       2729.2250      0.20613799
       2730.0245      0.19443058
       2730.8241      0.18496398
       2731.6236      0.22830080
       2732.4231      0.23627765
       2733.2226      0.20108943
       2734.0221      0.20128240
       2734.8217      0.21851171
       2735.6212      0.19923223
       2736.4207      0.20480500
       2737.2202      0.22036903
       2738.0197      0.21601914
       2738.8193      0.16051868
       2739.6188      0.12023722
       2740.4183      0.17611246
       2741.2178      0.21536752
       2742.0173      0.18062062
       2742.8169      0.22007004
       2743.6164      0.21352102
       2744.4159      0.21107324
       2745.2154      0.15095887
       2746.0149      0.16772272
       2746.8144      0.22824013
       2747.6140      0.19507926
       2748.4135      0.21244271
       2749.2130      0.19830595
       2750.0125      0.18113047
       2750.8120      0.22570814
       2751.6116      0.18309396
       2752.4111      0.19357675
       2753.2106      0.23702013
       2754.0101      0.20737192
       2754.8096      0.19336883
       2755.6092      0.20660847
       2756.4087      0.21428017
       2757.2082      0.19887113
       2758.0077      0.17874382
       2758.8072      0.19701544
       2759.6068      0.19280526
       2760.4063      0.19436840
       2761.2058      0.19395488
       2762.0053      0.20819519
       2762.8048      0.20607393
       2763.6044      0.20503145
       2764.4039      0.19834734
       2765.2034      0.22860845
       2766.0029      0.18843442
       2766.8024      0.22029433
       2767.6020      0.19535302
       2768.4015      0.17623776
       2769.2010      0.18403619
       2770.0005      0.20185051
       2770.8000      0.19984722
       2771.5995      0.22239020
       2772.3991      0.21374507
       2773.1986      0.19218874
       2773.9981      0.20008435
       2774.7976      0.22785459
       2775.5971      0.19889465
       2776.3967      0.20815396
       2777.1962      0.20522006
       2777.9957      0.22902845
       2778.7952      0.25275248
       2779.5947      0.23444051
       2780.3943      0.20421952
       2781.1938      0.19637636
       2781.9933      0.20456261
       2782.7928      0.20496757
       2783.5923      0.17008245
       2784.3919      0.19202625
       2785.1914      0.17007382
       2785.9909      0.20376609
       2786.7904      0.21299566
       2787.5899      0.18444405
       2788.3895      0.19950176
       2789.1890      0.18611459
       2789.9885      0.23222142
       2790.7880      0.22370172
       2791.5875      0.21263970
