# wavelength flux
       2856.7964       1.0307904
       2857.7985      0.80469371
       2858.8005      0.71888678
       2859.8026      0.72781769
       2860.8047      0.81224050
       2861.8067       1.2912345
       2862.8088      0.95443637
       2863.8108      0.97317452
       2864.8129      0.96589184
       2865.8150      0.67718735
       2866.8170      0.77423983
       2867.8191       1.0459704
       2868.8211      0.46393855
       2869.8232      0.87316766
       2870.8253      0.85211650
       2871.8273      0.79755810
       2872.8294      0.74362714
       2873.8314      0.79497174
       2874.8335      0.77590661
       2875.8356       1.0155696
       2876.8376      0.89077551
       2877.8397      0.89879586
       2878.8418      0.37940165
       2879.8438      0.40931413
       2880.8459      0.86415840
       2881.8479      0.78546078
       2882.8500      0.74415026
       2883.8521      0.83554039
       2884.8541      0.81970930
       2885.8562      0.87961196
       2886.8582      0.93924493
       2887.8603       1.0624653
       2888.8624       1.0642405
       2889.8644      0.94544269
       2890.8665       1.1962558
       2891.8685      0.59505439
       2892.8706       1.0077656
       2893.8727       1.0008927
       2894.8747      0.71805863
       2895.8768      0.76261391
       2896.8789      0.75341580
       2897.8809      0.70608875
       2898.8830      0.85609437
       2899.8850      0.63452436
       2900.8871      0.71724397
       2901.8892      0.92366292
       2902.8912      0.66309014
       2903.8933      0.78908310
       2904.8953      0.94305870
       2905.8974      0.76606750
       2906.8995      0.98185962
       2907.9015      0.67967487
       2908.9036      0.75951787
       2909.9056      0.71556837
       2910.9077      0.84021640
       2911.9098      0.51365213
       2912.9118      0.81773216
       2913.9139      0.80476186
       2914.9159      0.82514883
       2915.9180      0.55170984
       2916.9201      0.70746171
       2917.9221      0.69671336
       2918.9242      0.55938568
       2919.9263      0.75763403
       2920.9283      0.77005912
       2921.9304      0.76796500
       2922.9324      0.86316460
       2923.9345      0.87221273
       2924.9366      0.95284193
       2925.9386      0.72440830
       2926.9407      0.76010321
       2927.9427      0.85185287
       2928.9448      0.95312627
       2929.9469      0.61754861
       2930.9489      0.67899559
       2931.9510      0.74904516
       2932.9530      0.66391872
       2933.9551      0.66548466
       2934.9572      0.80466833
       2935.9592      0.62950328
       2936.9613      0.80660322
       2937.9634      0.60857986
       2938.9654      0.74250422
       2939.9675      0.56330196
       2940.9695      0.48492504
       2941.9716      0.66128278
       2942.9737      0.54460261
       2943.9757      0.70938768
       2944.9778      0.58468703
       2945.9798      0.61567202
       2946.9819      0.50822753
       2947.9840      0.45388072
       2948.9860      0.51487921
       2949.9881      0.64159918
       2950.9901      0.55530249
       2951.9922      0.80218308
       2952.9943      0.77459919
       2953.9963      0.55935360
       2954.9984      0.67418880
       2956.0005      0.69126575
       2957.0025      0.74089112
       2958.0046      0.79484986
       2959.0066      0.83666948
       2960.0087      0.75604410
       2961.0108      0.68527358
       2962.0128      0.87356279
       2963.0149      0.73453145
       2964.0169      0.70900612
       2965.0190      0.90048790
       2966.0211      0.80705039
       2967.0231      0.76035063
       2968.0252      0.73230199
       2969.0272      0.80440829
       2970.0293      0.70657705
       2971.0314      0.72703694
       2972.0334      0.70688493
       2973.0355      0.74724533
       2974.0376      0.83476702
       2975.0396      0.65568165
       2976.0417      0.83846299
       2977.0437      0.74539455
       2978.0458      0.79335860
       2979.0479      0.68724293
       2980.0499      0.81853477
       2981.0520      0.90063474
       2982.0540      0.90780336
       2983.0561      0.85908845
       2984.0582      0.97729841
       2985.0602      0.85662462
       2986.0623      0.90342434
       2987.0643      0.94036118
       2988.0664       1.0140268
       2989.0685      0.95488642
       2990.0705      0.93320407
       2991.0726      0.84592405
       2992.0747      0.92914866
       2993.0767      0.80165515
       2994.0788      0.86595154
       2995.0808      0.91548665
       2996.0829      0.87279785
       2997.0850      0.74819256
       2998.0870      0.80897866
       2999.0891      0.80737754
       3000.0911      0.89104062
       3001.0932      0.93361009
       3002.0953       1.0460873
       3003.0973      0.98186289
       3004.0994       1.0379488
       3005.1014      0.95727497
       3006.1035      0.95117619
       3007.1056       1.0563116
       3008.1076       1.0673041
       3009.1097      0.98584965
       3010.1118       1.0889379
       3011.1138       1.1192854
       3012.1159       1.0660120
       3013.1179       1.1062321
       3014.1200      0.95956197
       3015.1221       1.0062853
       3016.1241      0.85796221
       3017.1262      0.79336208
       3018.1282       1.0189254
       3019.1303       1.0242607
       3020.1324       1.0546215
       3021.1344       1.0708163
       3022.1365       1.0141869
       3023.1385      0.84805865
       3024.1406      0.85931945
       3025.1427      0.98685477
       3026.1447      0.88636374
       3027.1468      0.94677805
       3028.1489      0.88531140
       3029.1509      0.93411829
       3030.1530      0.99376834
       3031.1550       1.0642628
       3032.1571       1.0632318
       3033.1592       1.1222397
       3034.1612       1.0713836
       3035.1633      0.90926714
       3036.1653      0.89176552
       3037.1674       1.2433203
       3038.1695       1.1408741
       3039.1715       1.1165715
       3040.1736       1.2463525
       3041.1756       1.2104077
       3042.1777       1.1341773
       3043.1798       1.1328159
       3044.1818       1.2088452
       3045.1839       1.2332537
       3046.1859       1.1174207
       3047.1880       1.1935732
       3048.1901       1.0186511
       3049.1921       1.1880480
       3050.1942       1.1657862
       3051.1963      0.93425320
       3052.1983       1.1560023
       3053.2004       1.0904976
       3054.2024       1.1031681
       3055.2045       1.2365812
       3056.2066      0.95485645
       3057.2086       1.0003975
       3058.2107       1.0862394
       3059.2127      0.92531621
       3060.2148       1.0930980
       3061.2169      0.87680780
       3062.2189       1.1091229
       3063.2210       1.0651506
       3064.2230       1.0477562
       3065.2251       1.0456880
       3066.2272       1.0439350
       3067.2292       1.0273631
       3068.2313      0.89060744
       3069.2334      0.91761954
       3070.2354      0.94907437
       3071.2375      0.91278143
       3072.2395      0.92558058
       3073.2416      0.83899124
       3074.2437      0.76739691
       3075.2457      0.80749536
       3076.2478      0.94264229
       3077.2498      0.79233850
       3078.2519      0.82511986
       3079.2540      0.77581508
       3080.2560      0.72248278
       3081.2581      0.60670169
       3082.2601      0.64838759
       3083.2622      0.67783869
       3084.2643      0.78709506
       3085.2663      0.83823920
       3086.2684      0.71267928
       3087.2705      0.67706681
       3088.2725      0.80231446
       3089.2746      0.75951056
       3090.2766      0.87801878
       3091.2787      0.78932093
       3092.2808      0.89219307
       3093.2828      0.81093875
       3094.2849      0.83345362
       3095.2869      0.73827629
       3096.2890      0.81369095
       3097.2911      0.85824762
       3098.2931      0.80158754
       3099.2952      0.78844270
       3100.2972      0.72588329
       3101.2993      0.78154191
       3102.3014      0.78727098
       3103.3034      0.71994772
       3104.3055      0.81634176
       3105.3076      0.76170901
       3106.3096      0.70516563
       3107.3117      0.66993953
       3108.3137      0.66408465
       3109.3158      0.74634687
       3110.3179      0.85264026
       3111.3199      0.73376474
       3112.3220      0.80001665
       3113.3240      0.84452690
       3114.3261      0.77771232
       3115.3282      0.85024392
       3116.3302      0.92828577
       3117.3323      0.94793314
       3118.3343      0.93439243
       3119.3364      0.96791223
       3120.3385      0.78523120
       3121.3405      0.89113327
       3122.3426      0.90765500
       3123.3447      0.96515023
       3124.3467      0.87778314
       3125.3488      0.82212368
       3126.3508      0.82800368
       3127.3529      0.83377032
       3128.3550      0.84844941
       3129.3570      0.80701731
       3130.3591      0.92761536
       3131.3611      0.93785737
       3132.3632      0.86613662
       3133.3653      0.92562809
       3134.3673      0.89262002
       3135.3694      0.96442343
       3136.3714      0.91986837
       3137.3735      0.93706205
       3138.3756      0.81588204
       3139.3776      0.79202580
       3140.3797      0.74789748
       3141.3818      0.76056299
       3142.3838      0.69365423
       3143.3859      0.79243689
       3144.3879      0.66901190
       3145.3900      0.77435038
       3146.3921      0.70396771
       3147.3941      0.72394245
       3148.3962      0.70531970
       3149.3982      0.80614098
       3150.4003      0.73464144
       3151.4024      0.64338210
       3152.4044      0.68953447
       3153.4065      0.74298193
       3154.4085      0.71164910
       3155.4106      0.78984866
       3156.4127      0.78548935
       3157.4147      0.69346140
       3158.4168      0.69622430
       3159.4189      0.75051301
       3160.4209      0.76572559
       3161.4230      0.74111666
       3162.4250      0.73782264
       3163.4271      0.72440435
       3164.4292      0.73972420
       3165.4312      0.66940887
       3166.4333      0.73983123
       3167.4353      0.78041705
       3168.4374      0.80748046
       3169.4395      0.72237922
       3170.4415      0.76944353
       3171.4436      0.73452283
       3172.4456      0.76500324
       3173.4477      0.71997799
       3174.4498      0.80730328
       3175.4518      0.75950699
       3176.4539      0.71079733
       3177.4559      0.77138448
       3178.4580      0.79679996
       3179.4601      0.65349617
       3180.4621      0.75430891
       3181.4642      0.80532217
       3182.4663      0.69732688
       3183.4683      0.78675164
       3184.4704      0.76295129
       3185.4724      0.74731910
       3186.4745      0.78631197
       3187.4766      0.85603138
       3188.4786      0.76880106
       3189.4807      0.78177918
       3190.4827      0.87046287
       3191.4848      0.80446724
       3192.4869      0.75057345
       3193.4889      0.79505706
       3194.4910      0.69962284
       3195.4930      0.80162809
       3196.4951      0.76598439
       3197.4972      0.74993289
       3198.4992      0.74600704
       3199.5013      0.80087068
       3200.5034      0.82757219
       3201.5054      0.70652360
       3202.5075      0.81289556
       3203.5095      0.90602694
       3204.5116      0.86480734
       3205.5137      0.86689579
       3206.5157      0.85793661
       3207.5178      0.85805249
       3208.5198      0.87795596
       3209.5219      0.68780721
       3210.5240      0.79023533
       3211.5260      0.84989183
       3212.5281      0.81308332
       3213.5301      0.74688109
       3214.5322      0.72239459
       3215.5343      0.64043459
       3216.5363      0.65557419
       3217.5384      0.75245231
       3218.5405      0.68993759
       3219.5425      0.70550409
       3220.5446      0.59470454
       3221.5466      0.67097581
       3222.5487      0.66920420
       3223.5508      0.67590477
       3224.5528      0.64379845
       3225.5549      0.75582785
       3226.5569      0.70710321
       3227.5590      0.68578664
       3228.5611      0.71223992
       3229.5631      0.75660755
       3230.5652      0.81168309
       3231.5672      0.73106560
       3232.5693      0.72085899
       3233.5714      0.68313051
       3234.5734      0.68180658
       3235.5755      0.84719979
       3236.5776      0.71960370
       3237.5796      0.61331234
       3238.5817      0.78583341
       3239.5837      0.71135096
       3240.5858      0.71611055
       3241.5879      0.73477223
       3242.5899      0.69061920
       3243.5920      0.87986124
       3244.5940      0.78191828
       3245.5961      0.70720380
       3246.5982      0.82125756
       3247.6002      0.84037724
       3248.6023      0.87691865
       3249.6043      0.87448188
       3250.6064      0.79744215
       3251.6085      0.88169651
       3252.6105      0.84795704
       3253.6126      0.83450143
       3254.6147      0.88084381
       3255.6167      0.78724921
       3256.6188      0.76537159
       3257.6208      0.79324024
       3258.6229      0.77861678
       3259.6250      0.73230814
       3260.6270      0.79947793
       3261.6291      0.70165828
       3262.6311      0.78924831
       3263.6332      0.86448245
       3264.6353      0.74286375
       3265.6373      0.81716192
       3266.6394      0.78513154
       3267.6414      0.68748526
       3268.6435      0.67811314
       3269.6456      0.71885444
       3270.6476      0.75883724
       3271.6497      0.78751685
       3272.6518      0.78075045
       3273.6538      0.73911694
       3274.6559      0.64515604
       3275.6579      0.68899247
       3276.6600      0.68544661
       3277.6621      0.71631317
       3278.6641      0.71046910
       3279.6662      0.69085821
       3280.6682      0.69464258
       3281.6703      0.76314850
       3282.6724      0.80988305
       3283.6744      0.84259577
       3284.6765      0.81630615
       3285.6785      0.86553054
       3286.6806      0.82292609
       3287.6827      0.86997455
       3288.6847      0.86715445
       3289.6868      0.90524451
       3290.6889      0.89086674
       3291.6909      0.76047035
       3292.6930      0.82809027
       3293.6950      0.82575332
       3294.6971      0.83905108
       3295.6992      0.83981267
       3296.7012      0.78869980
       3297.7033      0.81837403
       3298.7053      0.88005378
       3299.7074      0.88510889
       3300.7095      0.83185057
       3301.7115      0.73925751
       3302.7136      0.82213668
       3303.7156      0.82597910
       3304.7177      0.84428684
       3305.7198      0.87062958
       3306.7218      0.89166650
       3307.7239      0.80993314
       3308.7259      0.74626589
       3309.7280      0.81635436
       3310.7301      0.81161521
       3311.7321      0.73234688
       3312.7342      0.80710659
       3313.7363      0.79910427
       3314.7383      0.81415403
       3315.7404      0.74073596
       3316.7424      0.79939473
       3317.7445      0.81393513
       3318.7466      0.74608045
       3319.7486      0.80462879
       3320.7507      0.84447715
       3321.7527      0.76920976
       3322.7548      0.79144612
       3323.7569      0.73786105
       3324.7589      0.74573706
       3325.7610      0.81407251
       3326.7630      0.81475621
       3327.7651      0.79280966
       3328.7672      0.74653573
       3329.7692      0.81356506
       3330.7713      0.83049404
       3331.7734      0.82853150
       3332.7754      0.82057471
       3333.7775      0.90981969
       3334.7795      0.90796076
       3335.7816      0.84915937
       3336.7837      0.82675255
       3337.7857      0.91405175
       3338.7878      0.85810894
       3339.7898      0.91528666
       3340.7919      0.83935172
       3341.7940      0.85611117
       3342.7960      0.88516999
       3343.7981      0.86201892
       3344.8001      0.89569782
       3345.8022      0.82357858
       3346.8043      0.77115703
       3347.8063      0.78327607
       3348.8084      0.87111223
       3349.8105      0.79106941
       3350.8125      0.83475693
       3351.8146      0.81431229
       3352.8166      0.82094016
       3353.8187      0.75314529
       3354.8208      0.82895940
       3355.8228      0.82765273
       3356.8249      0.85380842
       3357.8269      0.81137648
       3358.8290      0.97590497
       3359.8311      0.86306562
       3360.8331      0.85205181
       3361.8352      0.81936549
       3362.8372      0.85045415
       3363.8393      0.80233738
       3364.8414      0.73653077
       3365.8434      0.92727312
       3366.8455      0.83385589
       3367.8476      0.78735533
       3368.8496      0.89928972
       3369.8517      0.83840436
       3370.8537      0.90882995
       3371.8558      0.89317136
       3372.8579      0.87436388
       3373.8599      0.88208811
       3374.8620      0.84284865
       3375.8640      0.81192439
       3376.8661      0.87112599
       3377.8682      0.82170734
       3378.8702      0.74808135
       3379.8723      0.90548053
       3380.8743      0.81583941
       3381.8764      0.87656522
       3382.8785      0.74256586
       3383.8805      0.81967995
       3384.8826      0.83442622
       3385.8847      0.73717673
       3386.8867      0.77338051
       3387.8888      0.67002842
       3388.8908      0.72690829
       3389.8929      0.79060685
       3390.8950      0.74308064
       3391.8970      0.78386866
       3392.8991      0.79620755
       3393.9011      0.80423775
       3394.9032      0.82153713
       3395.9053      0.80090189
       3396.9073      0.73936824
       3397.9094      0.79766038
       3398.9114      0.89249780
       3399.9135      0.72990632
       3400.9156      0.67700209
       3401.9176      0.84006162
       3402.9197      0.82788842
       3403.9218      0.81350235
       3404.9238      0.79718369
       3405.9259      0.78413444
       3406.9279      0.81516366
       3407.9300      0.72706536
       3408.9321      0.79249535
       3409.9341      0.78809684
       3410.9362      0.80447793
       3411.9382      0.77628650
       3412.9403      0.84657160
       3413.9424      0.79251004
       3414.9444      0.77214014
       3415.9465      0.72397664
       3416.9485      0.83975675
       3417.9506      0.84715044
       3418.9527      0.88013118
       3419.9547      0.74847558
       3420.9568      0.79420760
       3421.9589      0.76551019
       3422.9609      0.81494814
       3423.9630      0.77024307
       3424.9650      0.80205030
       3425.9671      0.77532294
       3426.9692      0.83783662
       3427.9712      0.90915018
       3428.9733      0.82747339
       3429.9753      0.88847504
       3430.9774      0.77681309
       3431.9795      0.76582767
       3432.9815      0.90471871
       3433.9836      0.95018531
       3434.9856      0.92270465
       3435.9877      0.88118333
       3436.9898      0.86758942
       3437.9918      0.97685564
       3438.9939      0.84227850
       3439.9959      0.92545259
       3440.9980      0.98447314
       3442.0001      0.93125947
       3443.0021      0.90119956
       3444.0042      0.93128844
       3445.0063      0.90872120
       3446.0083      0.94671813
       3447.0104      0.89773917
       3448.0124      0.90834036
       3449.0145      0.97629698
       3450.0166      0.90954599
       3451.0186      0.93097471
       3452.0207      0.82230759
       3453.0227      0.87376914
       3454.0248      0.84712457
       3455.0269      0.87350387
       3456.0289      0.89341395
       3457.0310      0.84016118
       3458.0330      0.83296770
       3459.0351      0.82877470
       3460.0372      0.86417556
       3461.0392      0.85225808
       3462.0413      0.85260928
