# wavelength flux
       2355.9278     0.044275845
       2356.7175     0.030967473
       2357.5071    -0.099098130
       2358.2967   -0.0011810773
       2359.0863     0.027113618
       2359.8760     0.094302417
       2360.6656    -0.057667110
       2361.4552     0.099158005
       2362.2448    -0.034247795
       2363.0344    -0.051071241
       2363.8241     0.029841091
       2364.6137     0.052294509
       2365.4033    -0.031507690
       2366.1929     0.032454728
       2366.9826    -0.030150342
       2367.7722   -0.0053838740
       2368.5618    -0.010633737
       2369.3514    -0.024408000
       2370.1410     0.052390592
       2370.9307    -0.017004938
       2371.7203    -0.045898496
       2372.5099    -0.015286685
       2373.2995    -0.053035290
       2374.0892     0.058022109
       2374.8788    -0.021588055
       2375.6684     0.030148644
       2376.4580     0.042092832
       2377.2477     0.060300476
       2378.0373      0.12080197
       2378.8269    -0.043150482
       2379.6165    -0.022303225
       2380.4061    -0.019525346
       2381.1958     0.035505589
       2381.9854    -0.032847161
       2382.7750    -0.019176479
       2383.5646     0.017101134
       2384.3543    0.0039908391
       2385.1439      0.10236000
       2385.9335     0.093442703
       2386.7231    -0.034870793
       2387.5127      0.13733984
       2388.3024     0.071533259
       2389.0920    -0.018138152
       2389.8816     0.033415800
       2390.6712     0.074242907
       2391.4609    -0.031941013
       2392.2505     0.022052297
       2393.0401    -0.080263269
       2393.8297    -0.020250613
       2394.6194      0.13123912
       2395.4090     0.024441260
       2396.1986    -0.038524383
       2396.9882    -0.075692033
       2397.7778    0.0049002325
       2398.5675    0.0062238413
       2399.3571     0.049039520
       2400.1467     0.095175372
       2400.9363     0.043007692
       2401.7260     0.081237875
       2402.5156    -0.044424918
       2403.3052    -0.037264577
       2404.0948    -0.033047072
       2404.8844    -0.050285949
       2405.6741    -0.038061572
       2406.4637     0.042397886
       2407.2533    -0.025073850
       2408.0429     0.023192780
       2408.8326    -0.051258112
       2409.6222    -0.060326815
       2410.4118     0.097644840
       2411.2014     0.010382135
       2411.9911    -0.081600515
       2412.7807    0.0093710883
       2413.5703   -0.0011432801
       2414.3599     0.059051985
       2415.1495    -0.014332013
       2415.9392     0.047986368
       2416.7288    -0.018062505
       2417.5184    -0.057247901
       2418.3080   0.00095040473
       2419.0977     0.010175023
       2419.8873     0.041919743
       2420.6769     -0.11573513
       2421.4665     0.051112344
       2422.2561    0.0025823670
       2423.0458    -0.011255915
       2423.8354     0.029843734
       2424.6250     0.010369224
       2425.4146     0.069311038
       2426.2043    -0.010712109
       2426.9939     0.052276391
       2427.7835     0.020634995
       2428.5731    -0.025780552
       2429.3628      0.11626089
       2430.1524     0.063866590
       2430.9420    0.0018499329
       2431.7316     0.089274091
       2432.5212    -0.022537846
       2433.3109    -0.058796124
       2434.1005     0.018417738
       2434.8901     0.015401271
       2435.6797     0.096404375
       2436.4694    -0.012820355
       2437.2590     0.069561955
       2438.0486    -0.036928782
       2438.8382     0.031689885
       2439.6278    -0.019873898
       2440.4175     0.067114930
       2441.2071     0.024094969
       2441.9967    -0.018547907
       2442.7863     0.044901962
       2443.5760     0.064204907
       2444.3656    -0.014995489
       2445.1552    0.0059460337
       2445.9448      0.11178086
       2446.7345     0.019957847
       2447.5241      0.12975995
       2448.3137    -0.015324830
       2449.1033     0.029403740
       2449.8929     0.024545299
       2450.6826   -0.0047893294
       2451.4722   -0.0097382759
       2452.2618    0.0054142891
       2453.0514     0.024901537
       2453.8411      0.12700598
       2454.6307     0.070219488
       2455.4203     0.064534326
       2456.2099     0.010455808
       2456.9995     0.017051612
       2457.7892     0.037290144
       2458.5788     0.025115559
       2459.3684    0.0038385941
       2460.1580     0.029957994
       2460.9477     0.022290055
       2461.7373    -0.021596663
       2462.5269   -0.0040685233
       2463.3165     0.047831892
       2464.1062   -0.0074790329
       2464.8958     0.025755948
       2465.6854     0.057394596
       2466.4750    -0.019174086
       2467.2646     0.044472013
       2468.0543     0.035883818
       2468.8439     0.011834511
       2469.6335     0.016830589
       2470.4231     0.037221238
       2471.2128    0.0051590768
       2472.0024     0.036590158
       2472.7920    0.0040412732
       2473.5816     0.048986630
       2474.3712    -0.011705808
       2475.1609    0.0023519406
       2475.9505    -0.010444854
       2476.7401     0.014903312
       2477.5297     0.022068006
       2478.3194     0.030351633
       2479.1090    0.0053801162
       2479.8986     0.013539329
       2480.6882    0.0036265930
       2481.4779     0.014125797
       2482.2675   -0.0011268641
       2483.0571    -0.011697217
       2483.8467    0.0061781439
       2484.6363   -0.0032637103
       2485.4260    0.0075649874
       2486.2156     0.018248148
       2487.0052    -0.011820558
       2487.7948     0.015317499
       2488.5845   -0.0052987915
       2489.3741     0.063714913
       2490.1637     0.015251200
       2490.9533     0.058913109
       2491.7429     0.030929319
       2492.5326     0.062218179
       2493.3222   -0.0058678362
       2494.1118    -0.021098558
       2494.9014     0.072301584
       2495.6911     0.055556165
       2496.4807    0.0079150509
       2497.2703     0.040052461
       2498.0599     0.012189616
       2498.8496     0.020218038
       2499.6392    -0.033040212
       2500.4288   0.00026717306
       2501.2184   -0.0012638058
       2502.0080   -0.0065285802
       2502.7977     0.029375445
       2503.5873     0.067785880
       2504.3769     0.034343056
       2505.1665     0.051677513
       2505.9562     0.024411931
       2506.7458     0.051733292
       2507.5354    -0.011626183
       2508.3250    0.0071384115
       2509.1146     0.040159695
       2509.9043     0.041153571
       2510.6939     0.059645803
       2511.4835     0.022850446
       2512.2731   -0.0018233807
       2513.0628     0.019658061
       2513.8524    -0.012400337
       2514.6420    -0.021419925
       2515.4316     0.025008985
       2516.2213    0.0058410027
       2517.0109    -0.019611796
       2517.8005     0.038887118
       2518.5901     0.023802938
       2519.3797     0.033526050
       2520.1694    -0.016926371
       2520.9590    -0.023775055
       2521.7486    -0.022760330
       2522.5382     0.013343412
       2523.3279    0.0022265796
       2524.1175    -0.057332039
       2524.9071     0.030651597
       2525.6967     0.037174453
       2526.4863   -0.0083882838
       2527.2760     0.052184208
       2528.0656     0.048239027
       2528.8552     0.080906648
       2529.6448     0.060033689
       2530.4345   0.00073936890
       2531.2241    -0.018211469
       2532.0137     0.025255152
       2532.8033    0.0088807114
       2533.5930     0.094709458
       2534.3826    -0.041990317
       2535.1722   -0.0012669999
       2535.9618    -0.038735458
       2536.7514    -0.013892014
       2537.5411    0.0011409762
       2538.3307    -0.034081500
       2539.1203     0.050066893
       2539.9099    -0.044743904
       2540.6996     0.036805942
       2541.4892     0.052447765
       2542.2788     0.048301254
       2543.0684     0.010526976
       2543.8580    -0.028022896
       2544.6477   -0.0098376068
       2545.4373     0.034433966
       2546.2269     0.083016196
       2547.0165     0.041729718
       2547.8062     0.012643460
       2548.5958     0.017417173
       2549.3854     0.079188817
       2550.1750   -0.0069105804
       2550.9647    0.0026630075
       2551.7543     0.017647000
       2552.5439    -0.018776211
       2553.3335    0.0025093133
       2554.1231     0.030124479
       2554.9128     0.027055105
       2555.7024     0.081562983
       2556.4920     0.034202255
       2557.2816     0.045089222
       2558.0713   -0.0088433602
       2558.8609   -0.0042743541
       2559.6505     0.040527278
       2560.4401     0.019403494
       2561.2297     0.038510327
       2562.0194    0.0038787654
       2562.8090     0.018609315
       2563.5986   -0.0088999813
       2564.3882     0.047570975
       2565.1779     0.029980681
       2565.9675    0.0038230576
       2566.7571    0.0075394634
       2567.5467     0.019501248
       2568.3364     0.098068898
       2569.1260     0.018366601
       2569.9156   -0.0094094449
       2570.7052    -0.024589650
       2571.4948   -0.0016384014
       2572.2845    -0.021276916
       2573.0741     0.017720276
       2573.8637    -0.031102700
       2574.6533    0.0075755668
       2575.4430     0.023676791
       2576.2326   -0.0010508465
       2577.0222    -0.012151216
       2577.8118    0.0056047776
       2578.6014     0.013881091
       2579.3911     0.013142017
       2580.1807     0.010780912
       2580.9703    -0.010244133
       2581.7599    -0.041745579
       2582.5496   -0.0036743707
       2583.3392     0.056954108
       2584.1288     0.025353416
       2584.9184    -0.010357868
       2585.7081     0.055164560
       2586.4977     0.051297592
       2587.2873    -0.051759237
       2588.0769    0.0045404015
       2588.8665     0.021609662
       2589.6562     0.020506565
       2590.4458     0.063094926
       2591.2354     0.030827372
       2592.0250     0.023837080
       2592.8147     0.024428636
       2593.6043     0.045586975
       2594.3939     0.066887325
       2595.1835     0.033649428
       2595.9731    -0.010061472
       2596.7628     0.044989501
       2597.5524     0.035440580
       2598.3420     0.021312640
       2599.1316     0.031898133
       2599.9213     0.024190151
       2600.7109     0.049430377
       2601.5005     0.064236577
       2602.2901     0.050018836
       2603.0798     0.029298484
       2603.8694     0.056930276
       2604.6590    0.0035174130
       2605.4486    -0.020528764
       2606.2382     0.040893412
       2607.0279     0.087362042
       2607.8175     0.014383143
       2608.6071     0.023255388
       2609.3967    -0.012553675
       2610.1864   -0.0058561075
       2610.9760     0.013653711
       2611.7656     0.025398643
       2612.5552     0.012334735
       2613.3448     0.020139405
       2614.1345    0.0067102783
       2614.9241     0.047548107
       2615.7137    -0.018982744
       2616.5033     0.058205484
       2617.2930    -0.014250469
       2618.0826     0.055427305
       2618.8722     0.053519418
       2619.6618    -0.022622656
       2620.4515     0.028781836
       2621.2411     0.050602744
       2622.0307   -0.0025802282
       2622.8203    -0.037617200
       2623.6099     0.022581759
       2624.3996     0.048703422
       2625.1892     0.021171552
       2625.9788     0.021761515
       2626.7684    0.0075323755
       2627.5581   0.00066512455
       2628.3477    -0.013786640
       2629.1373     0.060039659
       2629.9269  -1.9990893e-05
       2630.7165     0.015337164
       2631.5062     0.038602482
       2632.2958     0.050119522
       2633.0854     0.029870166
       2633.8750     0.029236046
       2634.6647   -0.0044242991
       2635.4543     0.027483242
       2636.2439     0.028812275
       2637.0335     0.031824394
       2637.8231     0.042529042
       2638.6128   0.00059796558
       2639.4024     0.032524744
       2640.1920     0.037781503
       2640.9816     0.033364031
       2641.7713    -0.012271217
       2642.5609    -0.013334552
       2643.3505    -0.027747107
       2644.1401     0.016770037
       2644.9298     0.035073880
       2645.7194   0.00018927324
       2646.5090     0.050227167
       2647.2986     0.061900537
       2648.0882     0.012037233
       2648.8779    0.0087793236
       2649.6675     0.030358012
       2650.4571     0.047045371
       2651.2467    0.0054564035
       2652.0364    -0.013035847
       2652.8260     0.042088040
       2653.6156     0.024205176
       2654.4052     0.030638221
       2655.1948     0.046758027
       2655.9845     0.030514943
       2656.7741    0.0046956714
       2657.5637    0.0056260362
       2658.3533    -0.014399750
       2659.1430   -0.0067264657
       2659.9326     0.032157738
       2660.7222    -0.010725659
       2661.5118     0.023990786
       2662.3015     0.026644722
       2663.0911     0.035890265
       2663.8807     0.033042993
       2664.6703    -0.021187258
       2665.4599     0.021515039
       2666.2496     0.028342835
       2667.0392     0.055078154
       2667.8288    0.0072151549
       2668.6184     0.028327861
       2669.4081     0.035287220
       2670.1977     0.021290482
       2670.9873     0.041096347
       2671.7769     0.039830098
       2672.5665     0.041611447
       2673.3562     0.016106191
       2674.1458     0.054321179
       2674.9354     0.063996186
       2675.7250     0.059124289
       2676.5147     0.046565690
       2677.3043     0.039563476
       2678.0939     0.027168447
       2678.8835     0.011332277
       2679.6732    0.0013357463
       2680.4628     0.051563524
       2681.2524     0.061673426
       2682.0420     0.017827259
       2682.8316    0.0096934380
       2683.6213     0.034332706
       2684.4109     0.061792289
       2685.2005     0.069981749
       2685.9901    0.0034799052
       2686.7798     0.071139566
       2687.5694     0.022496767
       2688.3590    -0.022993119
       2689.1486     0.050537629
       2689.9382     0.081501956
       2690.7279     0.054588215
       2691.5175     0.017379550
       2692.3071     0.087831256
       2693.0967     0.070373178
       2693.8864     0.031342132
       2694.6760     0.034859856
       2695.4656    -0.027695756
       2696.2552     0.074535417
       2697.0449   -0.0062685661
       2697.8345  -0.00074998952
       2698.6241     0.032912935
       2699.4137     0.032690668
       2700.2033      0.10203777
       2700.9930     0.054661153
       2701.7826     0.025104266
       2702.5722     0.037533775
       2703.3618     0.025853906
       2704.1515    0.0068473318
       2704.9411     0.011105221
       2705.7307    -0.017260750
       2706.5203     0.032520074
       2707.3099     0.036483124
       2708.0996     0.072318973
       2708.8892     0.020085090
       2709.6788    0.0023047847
       2710.4684     0.041086441
       2711.2581    0.0037983403
       2712.0477     0.019974084
       2712.8373     0.093336708
       2713.6269     0.028265771
       2714.4166     0.037470946
       2715.2062     0.020556092
       2715.9958     0.017746424
       2716.7854    -0.035730538
       2717.5750     0.021953709
       2718.3647    0.0094423041
       2719.1543    -0.011729421
       2719.9439     0.044944214
       2720.7335     0.015641773
       2721.5232     0.036062553
       2722.3128     0.060220772
       2723.1024     0.020806404
       2723.8920   -0.0039685268
       2724.6816     0.052254497
       2725.4713     0.059758095
       2726.2609     0.071670870
       2727.0505     0.013342208
       2727.8401     0.015799843
       2728.6298     0.021759440
       2729.4194     0.039555457
       2730.2090     0.061663574
       2730.9986     0.040471297
       2731.7883     0.017574126
       2732.5779     0.017605094
       2733.3675     0.030420500
       2734.1571     0.052686765
       2734.9467   -0.0068255791
       2735.7364     0.027790331
       2736.5260     0.011256060
       2737.3156    0.0049801361
       2738.1052     0.086904138
       2738.8949     0.052210882
       2739.6845     0.035330641
       2740.4741     0.054181471
       2741.2637     0.017750046
       2742.0533     0.023240623
       2742.8430     0.025781004
       2743.6326     0.042176125
       2744.4222     0.059012885
       2745.2118     0.046152352
       2746.0015     0.020112882
       2746.7911     0.013263647
       2747.5807     0.055365618
       2748.3703     0.065485065
       2749.1600     0.054899598
       2749.9496     0.045942382
       2750.7392     0.041863297
       2751.5288     0.012181101
       2752.3184     0.017158389
       2753.1081     0.059725224
       2753.8977     0.038599598
       2754.6873   -0.0070859482
       2755.4769     0.037601158
       2756.2666     0.069886068
       2757.0562      0.10048838
       2757.8458     0.055289666
       2758.6354     0.038476323
       2759.4250     0.043356031
       2760.2147     0.035856483
       2761.0043     0.055119211
       2761.7939     0.050171833
       2762.5835    -0.031293498
       2763.3732    -0.010926977
       2764.1628     0.020463791
       2764.9524   -0.0023083778
       2765.7420     0.049514560
       2766.5317     0.046980155
       2767.3213     0.080791554
       2768.1109     0.049441565
       2768.9005     0.012066179
       2769.6901     0.073826512
       2770.4798    -0.020812713
       2771.2694     0.025568781
       2772.0590     0.079222571
       2772.8486     0.010211411
       2773.6383     0.016430370
       2774.4279    0.0054391748
       2775.2175     0.020265808
       2776.0071     0.025710378
       2776.7967    -0.024833149
       2777.5864     0.012995764
       2778.3760     0.026810565
       2779.1656     0.028083992
       2779.9552     0.036309149
       2780.7449    0.0087267576
       2781.5345     0.032211034
       2782.3241     0.043599984
       2783.1137     0.024275998
       2783.9034     0.044162484
       2784.6930    0.0033707535
       2785.4826     0.020832699
       2786.2722    0.0079937139
       2787.0618     0.044010555
       2787.8515     0.045940101
       2788.6411     0.027903408
       2789.4307     0.021536320
       2790.2203     0.013880420
       2791.0100     0.044928712
       2791.7996     0.025796629
       2792.5892     0.071183280
       2793.3788     0.044028185
       2794.1684  -0.00039150839
       2794.9581     0.015929404
       2795.7477     0.024780795
       2796.5373     0.066960557
       2797.3269    0.0019103169
       2798.1166     0.022311695
       2798.9062     0.013266252
       2799.6958    -0.011325423
       2800.4854   -0.0097927060
       2801.2751    0.0054209015
       2802.0647     0.031680797
       2802.8543    -0.017800886
       2803.6439     0.024096993
       2804.4335     0.018032719
       2805.2232     0.020255040
       2806.0128   -0.0031625688
       2806.8024     0.023696229
       2807.5920   -0.0040861030
       2808.3817     0.036481743
       2809.1713     0.046038192
       2809.9609   -0.0060206480
       2810.7505     0.045154109
       2811.5401     0.074829473
       2812.3298     0.047138145
       2813.1194     0.044582498
       2813.9090     0.033746084
       2814.6986     0.037357201
       2815.4883     0.024349511
       2816.2779    -0.028127531
       2817.0675     0.030950036
       2817.8571     0.021847702
       2818.6468     0.037952928
       2819.4364     0.038327554
       2820.2260     0.036287219
       2821.0156     0.022768253
       2821.8052     0.056317054
       2822.5949     0.015333501
       2823.3845     0.028006901
       2824.1741     0.018742985
       2824.9637     0.025196677
       2825.7534   -0.0030054382
       2826.5430     0.038296175
       2827.3326     0.044606213
       2828.1222     0.064470222
       2828.9118     0.062657079
       2829.7015     0.047052083
       2830.4911     0.048855887
       2831.2807     0.038595034
       2832.0703    0.0054861106
       2832.8600     0.026696149
