# wavelength flux
       2643.0002      0.49235980
       2643.9313      0.32273298
       2644.8625      0.25125632
       2645.7936      0.45627722
       2646.7247      0.37641251
       2647.6559      0.12206379
       2648.5870      0.16778275
       2649.5181      0.30954399
       2650.4493      0.36645801
       2651.3804      0.25262245
       2652.3116      0.27422441
       2653.2427      0.48583361
       2654.1738     0.023019230
       2655.1050      0.44672032
       2656.0361     0.073843119
       2656.9673      0.28765107
       2657.8984      0.25999812
       2658.8295      0.31577957
       2659.7607      0.41838691
       2660.6918      0.38633459
       2661.6229      0.12924425
       2662.5541      0.32057373
       2663.4852      0.45006651
       2664.4164      0.38659303
       2665.3475      0.44760416
       2666.2786      0.23943217
       2667.2098      0.42478167
       2668.1409      0.42668012
       2669.0721      0.11200710
       2670.0032      0.14100839
       2670.9343      0.32875355
       2671.8655      0.13301682
       2672.7966      0.31801384
       2673.7277      0.19026042
       2674.6589      0.36429910
       2675.5900      0.40277238
       2676.5212      0.18137526
       2677.4523      0.29287910
       2678.3834      0.29005928
       2679.3146      0.12074771
       2680.2457      0.38878564
       2681.1769      0.18875828
       2682.1080      0.24220605
       2683.0391      0.31085248
       2683.9703      0.19087128
       2684.9014      0.13620132
       2685.8325      0.18994444
       2686.7637      0.22650530
       2687.6948      0.24521598
       2688.6260      0.31656403
       2689.5571      0.20991255
       2690.4882      0.24620380
       2691.4194      0.22837083
       2692.3505      0.26702928
       2693.2817      0.21218639
       2694.2128     0.094279018
       2695.1439      0.28970932
       2696.0751      0.26627209
       2697.0062      0.11711208
       2697.9373      0.22897060
       2698.8685      0.25332026
       2699.7996      0.26724349
       2700.7308      0.36184253
       2701.6619      0.21156136
       2702.5930      0.30110070
       2703.5242      0.41645755
       2704.4553      0.43471410
       2705.3865      0.29214225
       2706.3176      0.36365733
       2707.2487      0.21031056
       2708.1799      0.18452322
       2709.1110      0.29032614
       2710.0421      0.26137488
       2710.9733      0.31597812
       2711.9044      0.18873173
       2712.8356      0.23621630
       2713.7667      0.35848196
       2714.6978      0.25471499
       2715.6290      0.21171129
       2716.5601      0.16847122
       2717.4913      0.15456166
       2718.4224      0.26872654
       2719.3535      0.10008127
       2720.2847      0.21471708
       2721.2158      0.24168209
       2722.1469      0.23814282
       2723.0781      0.17679793
       2724.0092      0.13776660
       2724.9404      0.37033591
       2725.8715      0.13155107
       2726.8026      0.26395736
       2727.7338      0.30259268
       2728.6649      0.20980452
       2729.5961      0.31310994
       2730.5272      0.28567516
       2731.4583      0.17540999
       2732.3895      0.30665008
       2733.3206      0.23599835
       2734.2517      0.30124769
       2735.1829      0.24836053
       2736.1140      0.22157278
       2737.0452      0.27703659
       2737.9763      0.18170165
       2738.9074      0.18577238
       2739.8386      0.13168118
       2740.7697      0.22071612
       2741.7009      0.17669135
       2742.6320      0.28555070
       2743.5631      0.30890188
       2744.4943      0.19814855
       2745.4254      0.29756221
       2746.3565      0.31378564
       2747.2877      0.26342315
       2748.2188      0.31314403
       2749.1500      0.37253682
       2750.0811      0.21782721
       2751.0122      0.22251362
       2751.9434      0.32585087
       2752.8745      0.31657174
       2753.8057      0.21800788
       2754.7368      0.23843418
       2755.6679      0.24936392
       2756.5991      0.17541207
       2757.5302      0.23191295
       2758.4613      0.21871206
       2759.3925      0.19746881
       2760.3236      0.27462608
       2761.2548      0.15650999
       2762.1859      0.13530383
       2763.1170      0.20601022
       2764.0482      0.11272084
       2764.9793      0.16277448
       2765.9105      0.28902690
       2766.8416      0.25943114
       2767.7727      0.20735878
       2768.7039      0.12782371
       2769.6350      0.26077034
       2770.5661      0.14051789
       2771.4973      0.15273304
       2772.4284      0.17979128
       2773.3596      0.24167930
       2774.2907      0.19863009
       2775.2218      0.19802258
       2776.1530      0.13049253
       2777.0841      0.27136339
       2778.0153      0.31538324
       2778.9464      0.34952489
       2779.8775      0.18070205
       2780.8087      0.14042569
       2781.7398      0.18795806
       2782.6709      0.20011342
       2783.6021      0.35976920
       2784.5332      0.21749640
       2785.4644      0.18778734
       2786.3955      0.32106827
       2787.3266      0.32791965
       2788.2578      0.18395198
       2789.1889      0.25050807
       2790.1201      0.17805340
       2791.0512      0.30030826
       2791.9823      0.29815148
       2792.9135      0.24298392
       2793.8446      0.38412654
       2794.7757      0.36618698
       2795.7069      0.31462753
       2796.6380      0.29145498
       2797.5692      0.29469865
       2798.5003      0.31935323
       2799.4314      0.21271974
       2800.3626      0.31601344
       2801.2937      0.38198737
       2802.2249      0.36729652
       2803.1560      0.28071227
       2804.0871      0.31395771
       2805.0183      0.23070029
       2805.9494      0.31369489
       2806.8805      0.19571639
       2807.8117      0.37746435
       2808.7428      0.25326676
       2809.6740      0.33870060
       2810.6051      0.34518281
       2811.5362      0.30590710
       2812.4674      0.32065192
       2813.3985      0.33934257
       2814.3297      0.30727441
       2815.2608      0.29806306
       2816.1919      0.36649170
       2817.1231      0.32739235
       2818.0542      0.32057679
       2818.9853      0.26315503
       2819.9165      0.27493257
       2820.8476      0.39670842
       2821.7788      0.34466986
       2822.7099      0.35058686
       2823.6410      0.26102130
       2824.5722      0.27109837
       2825.5033      0.17647332
       2826.4345      0.31459225
       2827.3656      0.30061449
       2828.2967      0.25541166
       2829.2279      0.28693128
       2830.1590      0.26974998
       2831.0901      0.25373766
       2832.0213      0.40685974
       2832.9524      0.30233391
       2833.8836      0.31473827
       2834.8147      0.23560703
       2835.7458      0.26103744
       2836.6770      0.21715089
       2837.6081      0.26035419
       2838.5393      0.24517315
       2839.4704      0.25676344
       2840.4015      0.28222224
       2841.3327      0.28598509
       2842.2638      0.27085079
       2843.1949      0.33893775
       2844.1261      0.41972215
       2845.0572      0.33554318
       2845.9884      0.30742301
       2846.9195      0.24101892
       2847.8506      0.28873786
       2848.7818      0.33452880
       2849.7129      0.31454814
       2850.6441      0.27151814
       2851.5752      0.37396680
       2852.5063      0.31043755
       2853.4375      0.26480136
       2854.3686      0.28340903
       2855.2997      0.36495608
       2856.2309      0.30323817
       2857.1620      0.22694386
       2858.0932      0.28082613
       2859.0243      0.33806466
       2859.9554      0.26042248
       2860.8866      0.33602031
       2861.8177      0.31535411
       2862.7489      0.30592957
       2863.6800      0.32876381
       2864.6111      0.28821219
       2865.5423      0.31769245
       2866.4734      0.33390128
       2867.4045      0.25486130
       2868.3357      0.28892451
       2869.2668      0.27156001
       2870.1980      0.34915518
       2871.1291      0.31088554
       2872.0602      0.30900386
       2872.9914      0.25875360
       2873.9225      0.32089322
       2874.8537      0.27695479
       2875.7848      0.34309779
       2876.7159      0.40120152
       2877.6471      0.36510209
       2878.5782      0.36201674
       2879.5093      0.26151088
       2880.4405      0.39593758
       2881.3716      0.31531584
       2882.3028      0.31300400
       2883.2339      0.32403018
       2884.1650      0.28656004
       2885.0962      0.32256453
       2886.0273      0.23777489
       2886.9585      0.39257440
       2887.8896      0.36603784
       2888.8207      0.32497233
       2889.7519      0.26307122
       2890.6830      0.34400092
       2891.6141      0.31028468
       2892.5453      0.44496037
       2893.4764      0.39104358
       2894.4076      0.35293542
       2895.3387      0.31167502
       2896.2698      0.35532970
       2897.2010      0.33371608
       2898.1321      0.33667517
       2899.0633      0.33876609
       2899.9944      0.33692241
       2900.9255      0.30918964
       2901.8567      0.31639478
       2902.7878      0.33988005
       2903.7189      0.43643342
       2904.6501      0.37700184
       2905.5812      0.32826895
       2906.5124      0.37167120
       2907.4435      0.41777977
       2908.3746      0.31287205
       2909.3058      0.36981279
       2910.2369      0.36363470
       2911.1681      0.37058798
       2912.0992      0.35035975
       2913.0303      0.33717087
       2913.9615      0.30069894
       2914.8926      0.35092193
       2915.8237      0.36560656
       2916.7549      0.34269180
       2917.6860      0.39667248
       2918.6172      0.35804438
       2919.5483      0.34657652
       2920.4794      0.40204341
       2921.4106      0.39772307
       2922.3417      0.37417101
       2923.2729      0.29822482
       2924.2040      0.29230608
       2925.1351      0.33950221
       2926.0663      0.26771111
       2926.9974      0.22569957
       2927.9285      0.38988136
       2928.8597      0.38974065
       2929.7908      0.34765122
       2930.7220      0.38424283
       2931.6531      0.31609975
       2932.5842      0.32721508
       2933.5154      0.35660043
       2934.4465      0.42928707
       2935.3777      0.35879103
       2936.3088      0.34792232
       2937.2399      0.39733038
       2938.1711      0.35220695
       2939.1022      0.37073623
       2940.0333      0.34766137
       2940.9645      0.33536621
       2941.8956      0.32053170
       2942.8268      0.37598586
       2943.7579      0.42870438
       2944.6890      0.47203785
       2945.6202      0.36332977
       2946.5513      0.46770535
       2947.4825      0.37340826
       2948.4136      0.42123005
       2949.3447      0.47375153
       2950.2759      0.46147441
       2951.2070      0.45846169
       2952.1381      0.49591269
       2953.0693      0.47493862
       2954.0004      0.51793324
       2954.9316      0.45611773
       2955.8627      0.39132773
       2956.7938      0.33268443
       2957.7250      0.43424436
       2958.6561      0.39823617
       2959.5873      0.36984384
       2960.5184      0.35248922
       2961.4495      0.40164935
       2962.3807      0.34389053
       2963.3118      0.35523629
       2964.2429      0.37647469
       2965.1741      0.47821804
       2966.1052      0.35646763
       2967.0364      0.31560791
       2967.9675      0.41899392
       2968.8986      0.43890247
       2969.8298      0.41040848
       2970.7609      0.43740878
       2971.6921      0.37750245
       2972.6232      0.43406578
       2973.5543      0.40103535
       2974.4855      0.33484130
       2975.4166      0.31168755
       2976.3477      0.31271983
       2977.2789      0.29595769
       2978.2100      0.29938056
       2979.1412      0.30664664
       2980.0723      0.34445169
       2981.0034      0.35395165
       2981.9346      0.32978765
       2982.8657      0.43678719
       2983.7969      0.33249079
       2984.7280      0.38244223
       2985.6591      0.39675753
       2986.5903      0.34760718
       2987.5214      0.34828818
       2988.4525      0.31279869
       2989.3837      0.32848421
       2990.3148      0.37860786
       2991.2460      0.40154620
       2992.1771      0.36553388
       2993.1082      0.38642310
       2994.0394      0.40303724
       2994.9705      0.32753605
       2995.9017      0.41906889
       2996.8328      0.45994209
       2997.7639      0.36894110
       2998.6951      0.34979055
       2999.6262      0.36776596
       3000.5573      0.46452484
       3001.4885      0.40218159
       3002.4196      0.41104256
       3003.3508      0.43538185
       3004.2819      0.44455509
       3005.2130      0.39885070
       3006.1442      0.40773050
       3007.0753      0.40900981
       3008.0065      0.47757036
       3008.9376      0.30670830
       3009.8687      0.38112200
       3010.7999      0.36707042
       3011.7310      0.34135924
       3012.6621      0.38363917
       3013.5933      0.36392956
       3014.5244      0.41618006
       3015.4556      0.32200486
       3016.3867      0.40395535
       3017.3178      0.35809737
       3018.2490      0.40053655
       3019.1801      0.37757373
       3020.1113      0.41837071
       3021.0424      0.44258223
       3021.9735      0.44742933
       3022.9047      0.42272510
       3023.8358      0.45692295
       3024.7669      0.48407396
       3025.6981      0.44016952
       3026.6292      0.44305935
       3027.5604      0.41938441
       3028.4915      0.38660000
       3029.4226      0.39508386
       3030.3538      0.43951208
       3031.2849      0.46254465
       3032.2161      0.44942239
       3033.1472      0.42532870
       3034.0783      0.44316515
       3035.0095      0.43640674
       3035.9406      0.47676923
       3036.8717      0.50161711
       3037.8029      0.49268607
       3038.7340      0.43030359
       3039.6652      0.36488418
       3040.5963      0.38522334
       3041.5274      0.42129506
       3042.4586      0.41497476
       3043.3897      0.35377962
       3044.3209      0.36262698
       3045.2520      0.43896105
       3046.1831      0.36670356
       3047.1143      0.38657184
       3048.0454      0.35293737
       3048.9765      0.35119151
       3049.9077      0.43037107
       3050.8388      0.36287260
       3051.7700      0.38531779
       3052.7011      0.35913035
       3053.6322      0.37162380
       3054.5634      0.34013809
       3055.4945      0.35900778
       3056.4257      0.36357829
       3057.3568      0.33776784
       3058.2879      0.38014075
       3059.2191      0.40429043
       3060.1502      0.36563042
       3061.0813      0.35753347
       3062.0125      0.45900240
       3062.9436      0.40969170
       3063.8748      0.37117267
       3064.8059      0.38788630
       3065.7370      0.40857831
       3066.6682      0.42038251
       3067.5993      0.37602857
       3068.5305      0.36504684
       3069.4616      0.40377944
       3070.3927      0.44792539
       3071.3239      0.37921633
       3072.2550      0.41334521
       3073.1861      0.39258607
       3074.1173      0.42913280
       3075.0484      0.40182984
       3075.9796      0.37356245
       3076.9107      0.36801580
       3077.8418      0.28287443
       3078.7730      0.36673601
       3079.7041      0.39857255
       3080.6353      0.39496032
       3081.5664      0.38981396
       3082.4975      0.36240102
       3083.4287      0.35823020
       3084.3598      0.34661222
       3085.2909      0.40729671
       3086.2221      0.34388456
       3087.1532      0.40282186
       3088.0844      0.36596417
       3089.0155      0.35332867
       3089.9466      0.37951093
       3090.8778      0.35303983
       3091.8089      0.36397254
       3092.7401      0.36710017
       3093.6712      0.35639544
       3094.6023      0.28565344
       3095.5335      0.37726010
       3096.4646      0.37655882
       3097.3957      0.30505869
       3098.3269      0.36075290
       3099.2580      0.37087583
       3100.1892      0.35744764
       3101.1203      0.42412674
       3102.0514      0.39688754
       3102.9826      0.36402170
       3103.9137      0.45869408
       3104.8449      0.38379252
       3105.7760      0.39783429
       3106.7071      0.47382709
       3107.6383      0.52404888
       3108.5694      0.40546402
       3109.5005      0.43683816
       3110.4317      0.38853596
       3111.3628      0.42281382
       3112.2940      0.39745054
       3113.2251      0.39609962
       3114.1562      0.46378261
       3115.0874      0.33636239
       3116.0185      0.43804673
       3116.9497      0.47747770
       3117.8808      0.41908591
       3118.8119      0.35532856
       3119.7431      0.42439319
       3120.6742      0.42626151
       3121.6053      0.39247599
       3122.5365      0.39677936
       3123.4676      0.40750238
       3124.3988      0.37944578
       3125.3299      0.36603702
       3126.2610      0.45447439
       3127.1922      0.38568626
       3128.1233      0.39117568
       3129.0545      0.40948612
       3129.9856      0.42108686
       3130.9167      0.37223776
       3131.8479      0.39296629
       3132.7790      0.37307560
       3133.7101      0.41578616
       3134.6413      0.44198483
       3135.5724      0.38775571
       3136.5036      0.39424407
       3137.4347      0.37333010
       3138.3658      0.40553662
       3139.2970      0.46932069
       3140.2281      0.38224108
       3141.1593      0.45429403
       3142.0904      0.42863426
       3143.0215      0.45452005
       3143.9527      0.46934852
       3144.8838      0.43417924
       3145.8149      0.44763385
       3146.7461      0.55992194
       3147.6772      0.44817897
       3148.6084      0.42913830
       3149.5395      0.37147166
       3150.4706      0.46313917
       3151.4018      0.47503828
       3152.3329      0.46657284
       3153.2641      0.48890819
       3154.1952      0.37720765
       3155.1263      0.43502396
       3156.0575      0.46619027
       3156.9886      0.45148885
       3157.9197      0.40084395
       3158.8509      0.37585565
       3159.7820      0.36804752
       3160.7132      0.42082821
       3161.6443      0.43590466
       3162.5754      0.44749995
       3163.5066      0.40483851
       3164.4377      0.51385676
       3165.3689      0.41876724
       3166.3000      0.41730037
       3167.2311      0.48570162
       3168.1623      0.51753734
       3169.0934      0.43588134
       3170.0245      0.47724544
       3170.9557      0.45909476
       3171.8868      0.47091806
       3172.8180      0.54051417
       3173.7491      0.55680822
       3174.6802      0.46013408
       3175.6114      0.49807877
       3176.5425      0.50182018
       3177.4737      0.44044942
       3178.4048      0.43060203
       3179.3359      0.49618373
       3180.2671      0.40004796
       3181.1982      0.48146164
       3182.1293      0.48968874
       3183.0605      0.40714725
       3183.9916      0.39257901
       3184.9228      0.46407934
       3185.8539      0.44100897
       3186.7850      0.51460370
       3187.7162      0.41310778
       3188.6473      0.49693669
       3189.5785      0.47043281
       3190.5096      0.52414814
       3191.4407      0.47916767
       3192.3719      0.43537545
       3193.3030      0.51948268
       3194.2341      0.46408102
       3195.1653      0.50933652
       3196.0964      0.40699492
       3197.0276      0.47586391
       3197.9587      0.44643769
       3198.8898      0.48070136
       3199.8210      0.46859221
       3200.7521      0.47577267
       3201.6833      0.53517101
       3202.6144      0.44997339
       3203.5455      0.49093246
       3204.4767      0.54727530
       3205.4078      0.54305558
