# wavelength flux
       5509.0330       2.4635986
       5510.0057       2.3869993
       5510.9784       2.2809271
       5511.9510       1.9339883
       5512.9237       1.7758434
       5513.8964       1.7723135
       5514.8691       1.7408537
       5515.8417       1.8103430
       5516.8144       1.4830379
       5517.7871       1.5187014
       5518.7598       1.7797086
       5519.7324       1.7292086
       5520.7051       1.8698783
       5521.6778       1.8821377
       5522.6505       1.7845399
       5523.6232       2.0329915
       5524.5958       1.8112601
       5525.5685       1.7362833
       5526.5412       1.7590331
       5527.5139       1.6863683
       5528.4865       1.7478163
       5529.4592       1.9098243
       5530.4319       1.8402546
       5531.4046       1.6737060
       5532.3772       1.8674461
       5533.3499       1.9187308
       5534.3226       1.8889186
       5535.2953       1.8087279
       5536.2679       1.8286177
       5537.2406       1.7836580
       5538.2133       1.9594993
       5539.1860       2.0276497
       5540.1586       1.8759549
       5541.1313       1.8900296
       5542.1040       1.8081251
       5543.0767       1.7223961
       5544.0494       1.6762707
       5545.0220       1.9138134
       5545.9947       1.7675197
       5546.9674       1.9507243
       5547.9401       1.8338720
       5548.9127       1.8438448
       5549.8854       1.9431858
       5550.8581       1.8325820
       5551.8308       1.8623303
       5552.8034       1.7860585
       5553.7761       1.9094440
       5554.7488       1.8852584
       5555.7215       1.9958844
       5556.6941       2.0549214
       5557.6668       1.8769157
       5558.6395       1.7663980
       5559.6122       1.7293190
       5560.5848       1.9350941
       5561.5575       1.6457019
       5562.5302       1.7423755
       5563.5029       1.8448470
       5564.4756       1.7514381
       5565.4482       1.9337293
       5566.4209       1.8716956
       5567.3936       2.0760761
       5568.3663       1.8644277
       5569.3389       1.7357313
       5570.3116       1.7294476
       5571.2843       1.8154870
       5572.2570       1.8526991
       5573.2296       1.7200654
       5574.2023       1.8512182
       5575.1750       1.8530656
       5576.1477       1.7148290
       5577.1203       1.7593987
       5578.0930       1.7786458
       5579.0657       1.8991165
       5580.0384       1.9321692
       5581.0110       1.7435890
       5581.9837       1.7996510
       5582.9564       1.9965091
       5583.9291       2.0331475
       5584.9018       2.0620932
       5585.8744       1.9919563
       5586.8471       1.7721475
       5587.8198       1.9993236
       5588.7925       1.9520174
       5589.7651       1.8339651
       5590.7378       1.9647665
       5591.7105       1.8697660
       5592.6832       1.7507925
       5593.6558       1.8391663
       5594.6285       1.7025781
       5595.6012       1.6929184
       5596.5739       1.9657247
       5597.5465       1.6304347
       5598.5192       1.8558962
       5599.4919       1.8177776
       5600.4646       1.7052238
       5601.4372       1.8443415
       5602.4099       1.8844238
       5603.3826       1.7792571
       5604.3553       1.8225387
       5605.3280       1.9442127
       5606.3006       2.1699164
       5607.2733       2.0305165
       5608.2460       1.9848048
       5609.2187       1.8410548
       5610.1913       1.9485380
       5611.1640       2.0343703
       5612.1367       1.8131507
       5613.1094       1.5407927
       5614.0820       1.4990885
       5615.0547       1.3309057
       5616.0274       1.3531686
       5617.0001       1.5386390
       5617.9727       1.6067735
       5618.9454       1.6372826
       5619.9181       1.5674810
       5620.8908       1.6436477
       5621.8634       1.7474254
       5622.8361       1.8136787
       5623.8088       1.8593784
       5624.7815       1.6886054
       5625.7542       1.8543330
       5626.7268       1.9996688
       5627.6995       1.9172258
       5628.6722       1.9373098
       5629.6449       1.8956380
       5630.6175       1.8641237
       5631.5902       1.7047504
       5632.5629       1.7892506
       5633.5356       1.7853972
       5634.5082       1.6668679
       5635.4809       1.5586574
       5636.4536       1.8315164
       5637.4263       1.6217448
       5638.3989       1.7008814
       5639.3716       1.6941474
       5640.3443       2.0585277
       5641.3170       1.8857037
       5642.2896       1.9075887
       5643.2623       1.8327082
       5644.2350       1.7875420
       5645.2077       1.7207750
       5646.1804       1.7609843
       5647.1530       1.9405290
       5648.1257       2.0563363
       5649.0984       1.9801609
       5650.0711       2.0991143
       5651.0437       1.8980561
       5652.0164       2.0746556
       5652.9891       1.8399333
       5653.9618       2.1689971
       5654.9344       1.9983058
       5655.9071       2.0288832
       5656.8798       2.0497843
       5657.8525       2.1857877
       5658.8251       2.0345766
       5659.7978       2.0086274
       5660.7705       1.7919022
       5661.7432       2.0489476
       5662.7159       1.9447858
       5663.6885       2.0795679
       5664.6612       2.1362851
       5665.6339       1.9613738
       5666.6066       2.1033680
       5667.5792       1.9913913
       5668.5519       1.9107145
       5669.5246       1.7824289
       5670.4973       1.8908839
       5671.4699       2.0692932
       5672.4426       2.2395633
       5673.4153       1.7837093
       5674.3880       2.0049705
       5675.3606       2.0123216
       5676.3333       1.9296982
       5677.3060       1.9603901
       5678.2787       1.8791486
       5679.2513       2.1327148
       5680.2240       2.0092469
       5681.1967       1.8535833
       5682.1694       2.0829746
       5683.1421       2.1926662
       5684.1147       1.9458367
       5685.0874       1.8916874
       5686.0601       1.8128786
       5687.0328       1.9342825
       5688.0054       1.8637295
       5688.9781       1.7653364
       5689.9508       2.0284360
       5690.9235       1.9100349
       5691.8961       1.8484393
       5692.8688       2.1397781
       5693.8415       1.9747265
       5694.8142       2.0302567
       5695.7868       2.1813734
       5696.7595       2.0840532
       5697.7322       2.0877213
       5698.7049       2.2118970
       5699.6775       2.1579939
       5700.6502       2.0705638
       5701.6229       2.1842321
       5702.5956       2.2060443
       5703.5683       2.2584454
       5704.5409       2.1325250
       5705.5136       1.8876801
       5706.4863       2.1955220
       5707.4590       2.0747418
       5708.4316       2.0780919
       5709.4043       1.9595019
       5710.3770       1.8703007
       5711.3497       2.0885284
       5712.3223       2.0611094
       5713.2950       2.1672897
       5714.2677       2.2738803
       5715.2404       2.1442994
       5716.2130       2.1173222
       5717.1857       2.2296066
       5718.1584       2.0986720
       5719.1311       2.0066144
       5720.1037       2.2516420
       5721.0764       2.1743977
       5722.0491       1.9672138
       5723.0218       2.2142205
       5723.9945       2.1025780
       5724.9671       1.8848982
       5725.9398       2.0327505
       5726.9125       1.9713930
       5727.8852       2.1097201
       5728.8578       1.9626616
       5729.8305       1.9259529
       5730.8032       2.0852812
       5731.7759       2.0267807
       5732.7485       1.9124876
       5733.7212       2.1996013
       5734.6939       2.1905081
       5735.6666       2.1151728
       5736.6392       2.2253715
       5737.6119       2.0104375
       5738.5846       2.1911808
       5739.5573       2.0007214
       5740.5299       2.1201909
       5741.5026       2.1521282
       5742.4753       1.9720644
       5743.4480       2.0251672
       5744.4207       2.0929238
       5745.3933       2.0983590
       5746.3660       2.0214105
       5747.3387       2.0733751
       5748.3114       1.9820546
       5749.2840       2.1493517
       5750.2567       2.1135931
       5751.2294       2.3249167
       5752.2021       2.1111720
       5753.1747       2.1244284
       5754.1474       2.0626737
       5755.1201       2.1348631
       5756.0928       2.1518503
       5757.0654       2.1415450
       5758.0381       2.1740852
       5759.0108       2.1015669
       5759.9835       1.8890383
       5760.9561       2.3922747
       5761.9288       1.9338216
       5762.9015       2.0529469
       5763.8742       1.8752383
       5764.8469       1.7431058
       5765.8195       1.9868176
       5766.7922       1.9138157
       5767.7649       2.0276538
       5768.7376       2.0547009
       5769.7102       1.9549681
       5770.6829       2.1103255
       5771.6556       2.0456254
       5772.6283       2.0728664
       5773.6009       2.2131678
       5774.5736       2.2313841
       5775.5463       2.1435407
       5776.5190       2.0318347
       5777.4916       2.0723458
       5778.4643       2.1311641
       5779.4370       1.9833461
       5780.4097       1.9283998
       5781.3823       2.2440519
       5782.3550       2.2406953
       5783.3277       2.0263985
       5784.3004       2.3141598
       5785.2731       1.9979826
       5786.2457       1.9802109
       5787.2184       2.1474819
       5788.1911       2.1935337
       5789.1638       1.9961977
       5790.1364       2.1095572
       5791.1091       2.1805941
       5792.0818       2.1397415
       5793.0545       2.2163918
       5794.0271       2.3211651
       5794.9998       2.2051665
       5795.9725       2.1991759
       5796.9452       2.1849982
       5797.9178       2.1750399
       5798.8905       2.0825875
       5799.8632       2.1662812
       5800.8359       2.3788901
       5801.8085       2.2626400
       5802.7812       2.3709677
       5803.7539       2.2253478
       5804.7266       2.1872687
       5805.6993       2.1586301
       5806.6719       2.0991961
       5807.6446       2.4255111
       5808.6173       2.2359920
       5809.5900       2.2117553
       5810.5626       2.1865091
       5811.5353       2.2217846
       5812.5080       2.1685815
       5813.4807       2.1410292
       5814.4533       2.0877758
       5815.4260       2.3601162
       5816.3987       2.1917913
       5817.3714       2.2155387
       5818.3440       2.2369164
       5819.3167       2.1578392
       5820.2894       2.1933069
       5821.2621       2.1529646
       5822.2347       2.1517336
       5823.2074       2.1368551
       5824.1801       2.2895862
       5825.1528       2.3330399
       5826.1255       2.2565818
       5827.0981       2.0845497
       5828.0708       2.1506616
       5829.0435       2.0968505
       5830.0162       2.2830216
       5830.9888       2.1593080
       5831.9615       2.0571959
       5832.9342       2.2071997
       5833.9069       2.2167181
       5834.8795       1.9628181
       5835.8522       1.9846284
       5836.8249       2.1368640
       5837.7976       2.1614306
       5838.7702       2.1532797
       5839.7429       2.0519342
       5840.7156       1.9637626
       5841.6883       2.1107573
       5842.6609       2.0546227
       5843.6336       2.0253141
       5844.6063       2.1585272
       5845.5790       2.1662743
       5846.5517       2.2306849
       5847.5243       2.1375979
       5848.4970       2.1265306
       5849.4697       2.0790174
       5850.4424       2.0600269
       5851.4150       2.1597061
       5852.3877       2.2278072
       5853.3604       2.1810624
       5854.3331       2.0722860
       5855.3057       2.0417925
       5856.2784       2.1796579
       5857.2511       2.1259790
       5858.2238       2.1750166
       5859.1964       2.1907621
       5860.1691       2.2688068
       5861.1418       2.2062698
       5862.1145       2.2641917
       5863.0871       2.3254695
       5864.0598       2.2719752
       5865.0325       2.2066682
       5866.0052       2.0387487
       5866.9779       2.0163007
       5867.9505       2.1479828
       5868.9232       2.0603403
       5869.8959       2.1247728
       5870.8686       1.9336681
       5871.8412       1.8861404
       5872.8139       1.5504236
       5873.7866       1.4851466
       5874.7593       1.4978028
       5875.7319       1.3765783
       5876.7046       1.5005004
       5877.6773       1.5117575
       5878.6500       1.4675957
       5879.6226       1.4807984
       5880.5953       1.3960134
       5881.5680       1.4089111
       5882.5407       1.5065638
       5883.5134       1.5449715
       5884.4860       1.7049520
       5885.4587       1.7598825
       5886.4314       1.8818882
       5887.4041       1.8729726
       5888.3767       1.8586037
       5889.3494       2.1293970
       5890.3221       2.1900306
       5891.2948       2.0622898
       5892.2674       1.9157937
       5893.2401       2.0950645
       5894.2128       2.0739672
       5895.1855       2.0165064
       5896.1581       2.1218745
       5897.1308       2.0496829
       5898.1035       2.0121861
       5899.0762       1.9099429
       5900.0488       2.0655141
       5901.0215       2.0014546
       5901.9942       2.0685895
       5902.9669       2.1645355
       5903.9396       2.2817375
       5904.9122       2.1958198
       5905.8849       2.2951171
       5906.8576       2.2386888
       5907.8303       2.1565113
       5908.8029       2.2450424
       5909.7756       2.1407518
       5910.7483       2.2800342
       5911.7210       2.2030535
       5912.6936       2.1582375
       5913.6663       2.2210191
       5914.6390       2.0220604
       5915.6117       2.1284760
       5916.5843       2.2270430
       5917.5570       2.1885809
       5918.5297       2.2780286
       5919.5024       2.0868420
       5920.4750       2.1034177
       5921.4477       2.1034042
       5922.4204       2.1719100
       5923.3931       2.0507494
       5924.3658       2.2194055
       5925.3384       2.0079220
       5926.3111       2.1848110
       5927.2838       2.1759221
       5928.2565       2.0721520
       5929.2291       2.2380969
       5930.2018       2.1998573
       5931.1745       2.0940154
       5932.1472       2.2186641
       5933.1198       2.0543742
       5934.0925       2.2617007
       5935.0652       2.2483802
       5936.0379       2.0613238
       5937.0105       2.1114947
       5937.9832       2.1714407
       5938.9559       2.0504139
       5939.9286       2.1890859
       5940.9012       2.0788574
       5941.8739       2.1439623
       5942.8466       2.2255693
       5943.8193       2.2620834
       5944.7920       2.1612498
       5945.7646       2.2783800
       5946.7373       2.1903167
       5947.7100       2.2416885
       5948.6827       2.1559028
       5949.6553       2.0445719
       5950.6280       2.2329291
       5951.6007       2.2661750
       5952.5734       2.1533979
       5953.5460       2.1804111
       5954.5187       2.3188719
       5955.4914       2.2648380
       5956.4641       1.9605489
       5957.4367       2.0915016
       5958.4094       2.4550868
       5959.3821       2.0041536
       5960.3548       1.9909402
       5961.3274       2.0444251
       5962.3001       2.0103429
       5963.2728       2.1596519
       5964.2455       2.2311357
       5965.2182       2.0832300
       5966.1908       2.0300287
       5967.1635       2.1056074
       5968.1362       2.0944417
       5969.1089       2.1564836
       5970.0815       2.1501639
       5971.0542       2.1901621
       5972.0269       2.1352175
       5972.9996       2.0579116
       5973.9722       2.1757499
       5974.9449       1.9965124
       5975.9176       2.2875875
       5976.8903       1.9313405
       5977.8629       2.2473145
       5978.8356       2.2321365
       5979.8083       2.2068637
       5980.7810       2.2249957
       5981.7536       2.1898908
       5982.7263       2.2459135
       5983.6990       2.2452852
       5984.6717       2.2676766
       5985.6444       2.1277306
       5986.6170       2.2516873
       5987.5897       2.3458033
       5988.5624       2.3479797
       5989.5351       2.3323681
       5990.5077       2.2940191
       5991.4804       2.1002397
       5992.4531       2.1806173
       5993.4258       2.1674767
       5994.3984       2.4889908
       5995.3711       2.1678264
       5996.3438       2.3043324
       5997.3165       2.5234200
       5998.2891       2.4352542
       5999.2618       2.1780758
       6000.2345       2.4443551
       6001.2072       2.2271324
       6002.1798       2.1500745
       6003.1525       2.2898149
       6004.1252       2.3103631
       6005.0979       2.2917772
       6006.0706       2.2373224
       6007.0432       2.1012497
       6008.0159       2.2662737
       6008.9886       2.2262720
       6009.9613       2.1258938
       6010.9339       2.0893273
       6011.9066       2.4071708
       6012.8793       2.1108717
       6013.8520       2.3472398
       6014.8246       2.1064682
       6015.7973       2.1221003
       6016.7700       2.0445749
       6017.7427       2.2321167
       6018.7153       2.2277399
       6019.6880       2.3425981
       6020.6607       2.2664499
       6021.6334       2.3304023
       6022.6060       2.5003295
       6023.5787       2.3107496
       6024.5514       2.4549718
       6025.5241       2.5980643
       6026.4968       2.6265067
       6027.4694       2.6432392
       6028.4421       2.5915120
       6029.4148       2.3660384
       6030.3875       2.3630530
       6031.3601       2.4040319
       6032.3328       2.2368116
       6033.3055       2.3392218
       6034.2782       2.3910616
       6035.2508       2.4295930
       6036.2235       2.6191354
       6037.1962       2.5848227
       6038.1689       2.1140489
       6039.1415       2.1540262
       6040.1142       2.3298606
       6041.0869       2.3555065
       6042.0596       2.4302376
       6043.0322       2.3499469
       6044.0049       2.4306453
       6044.9776       2.5247347
       6045.9503       2.3394475
       6046.9230       2.3458171
       6047.8956       2.4408361
       6048.8683       2.2238011
       6049.8410       2.3120341
       6050.8137       2.4877218
       6051.7863       2.3647536
       6052.7590       2.2774376
       6053.7317       2.3247208
       6054.7044       2.2875686
       6055.6770       2.3878859
       6056.6497       2.3953080
       6057.6224       2.5268623
       6058.5951       2.2548222
       6059.5677       2.3843172
       6060.5404       2.2924294
       6061.5131       2.4664655
       6062.4858       2.2128738
       6063.4584       2.1906542
       6064.4311       2.4712640
       6065.4038       2.7852874
       6066.3765       2.5158597
       6067.3492       2.5027178
       6068.3218       2.2655013
       6069.2945       2.3067579
       6070.2672       2.5729103
       6071.2399       2.4011735
       6072.2125       2.3253297
       6073.1852       2.1695122
       6074.1579       2.4405931
       6075.1306       2.3523629
       6076.1032       2.3347939
       6077.0759       2.3306986
       6078.0486       2.3170982
       6079.0213       2.2647120
       6079.9939       2.3159467
       6080.9666       2.4383669
       6081.9393       2.4791455
       6082.9120       2.2990287
       6083.8847       2.3391957
       6084.8573       2.4574031
       6085.8300       2.1767866
       6086.8027       2.3782696
       6087.7754       2.5060170
       6088.7480       2.3041344
       6089.7207       2.4027758
       6090.6934       2.3682385
       6091.6661       2.3027833
       6092.6387       2.3260721
       6093.6114       2.3317238
       6094.5841       2.1867270
       6095.5568       2.3331723
       6096.5294       2.2903740
