# wavelength flux
       2790.7438     0.014906380
       2791.7064      0.11823480
       2792.6691     0.037144165
       2793.6318     0.058401557
       2794.5945   -0.0010717252
       2795.5572     0.048119149
       2796.5198     0.015433003
       2797.4825     0.044695799
       2798.4452    0.0024454295
       2799.4079    0.0058240670
       2800.3706    -0.018923749
       2801.3333     0.042296895
       2802.2959     0.053989525
       2803.2586     0.068665382
       2804.2213     0.073881986
       2805.1840      0.10698477
       2806.1467     0.095052700
       2807.1094     0.044430955
       2808.0720     0.098028086
       2809.0347     0.027135835
       2809.9974   -0.0094355956
       2810.9601     0.075272462
       2811.9228     0.095460084
       2812.8854    -0.014677181
       2813.8481     0.029423271
       2814.8108     0.039778927
       2815.7735     0.023977297
       2816.7362   0.00089930680
       2817.6989     0.037544825
       2818.6615     0.079864800
       2819.6242     0.042778705
       2820.5869     0.097036692
       2821.5496     0.048467351
       2822.5123     0.096417375
       2823.4749     0.070510552
       2824.4376     0.048439136
       2825.4003     0.022947974
       2826.3630     0.071398134
       2827.3257     0.080279140
       2828.2884     0.073844962
       2829.2510     0.051476365
       2830.2137     0.064359103
       2831.1764     0.085661590
       2832.1391     0.018741247
       2833.1018    0.0076814041
       2834.0644     0.046126426
       2835.0271      0.12712010
       2835.9898     0.028549172
       2836.9525      0.10247815
       2837.9152      0.12195838
       2838.8779     0.043466093
       2839.8405    0.0075401008
       2840.8032     0.034658702
       2841.7659     0.031154748
       2842.7286     0.065849705
       2843.6913     0.092042962
       2844.6539     0.054610293
       2845.6166     0.038859306
       2846.5793     0.012112758
       2847.5420     0.020728867
       2848.5047     0.097409646
       2849.4674      0.10066372
       2850.4300     0.044043293
       2851.3927    -0.019195964
       2852.3554     0.091828892
       2853.3181     0.070442031
       2854.2808      0.11592883
       2855.2435     0.021062213
       2856.2061     0.090051814
       2857.1688     0.042168376
       2858.1315     0.056772040
       2859.0942      0.13473049
       2860.0569     0.025569477
       2861.0195     0.094017730
       2861.9822     0.054408823
       2862.9449     0.019923181
       2863.9076     0.027490671
       2864.8703     0.031554579
       2865.8330     0.048559155
       2866.7956     0.020361162
       2867.7583     0.023770499
       2868.7210     0.039402143
       2869.6837     0.075092016
       2870.6464     0.032896921
       2871.6090    -0.015474626
       2872.5717     0.015658327
       2873.5344     0.051136992
       2874.4971      0.15361822
       2875.4598     0.065170472
       2876.4225     0.067399570
       2877.3851     0.081202428
       2878.3478     0.035317896
       2879.3105     0.044014937
       2880.2732    0.0017435429
       2881.2359     0.056745507
       2882.1985     0.058257270
       2883.1612      0.10649904
       2884.1239     0.083525618
       2885.0866     0.097357393
       2886.0493     0.066098782
       2887.0120     0.037732664
       2887.9746     0.056577117
       2888.9373     0.028180993
       2889.9000     0.055149955
       2890.8627     0.052255477
       2891.8254     0.076257061
       2892.7881     0.089898064
       2893.7507     0.048698509
       2894.7134     0.034584128
       2895.6761     0.082545390
       2896.6388     0.028809095
       2897.6015     0.024255970
       2898.5641     0.047137078
       2899.5268     0.062344072
       2900.4895     0.080149052
       2901.4522     0.070347763
       2902.4149     0.054960477
       2903.3776    0.0039593159
       2904.3402     0.080717045
       2905.3029     0.076232531
       2906.2656     0.045218501
       2907.2283     0.053161824
       2908.1910     0.082666490
       2909.1536     0.076337820
       2910.1163     0.046922108
       2911.0790     0.073552431
       2912.0417      0.10527280
       2913.0044     0.039221953
       2913.9671     0.091698113
       2914.9297      0.11285249
       2915.8924     0.054679670
       2916.8551     0.048072770
       2917.8178     0.053614978
       2918.7805     0.055541587
       2919.7431     0.086235546
       2920.7058     0.047966099
       2921.6685     0.071161025
       2922.6312     0.034377550
       2923.5939    0.0052463689
       2924.5566     0.049564061
       2925.5192     0.084099228
       2926.4819     0.053286936
       2927.4446     0.074328775
       2928.4073      0.11572831
       2929.3700      0.10588458
       2930.3326     0.070348848
       2931.2953     0.067832566
       2932.2580     0.068397989
       2933.2207      0.10606936
       2934.1834     0.068369930
       2935.1461     0.016073653
       2936.1087     0.051896912
       2937.0714    -0.032632590
       2938.0341     0.097359690
       2938.9968     0.030358694
       2939.9595     0.056198898
       2940.9222     0.079795229
       2941.8848     0.038021657
       2942.8475     0.032023485
       2943.8102     0.046043416
       2944.7729     0.054272640
       2945.7356     0.064408564
       2946.6982     0.059880694
       2947.6609     0.058908938
       2948.6236     0.038347622
       2949.5863      0.10754430
       2950.5490     0.095352175
       2951.5117     0.036480888
       2952.4743     0.067572778
       2953.4370     0.057265803
       2954.3997     0.030426688
       2955.3624     0.070972596
       2956.3251     0.077950714
       2957.2877     0.023310851
       2958.2504     0.055112160
       2959.2131     0.078013374
       2960.1758     0.064830909
       2961.1385     0.069496180
       2962.1012     0.077827926
       2963.0638     0.034097649
       2964.0265     0.047736664
       2964.9892     0.088116095
       2965.9519     0.078222328
       2966.9146     0.085437363
       2967.8772     0.070131831
       2968.8399     0.040405376
       2969.8026     0.094539220
       2970.7653     0.047018363
       2971.7280      0.11970047
       2972.6907     0.036712501
       2973.6533     0.066679995
       2974.6160     0.074417900
       2975.5787     0.067238514
       2976.5414    0.0095439955
       2977.5041     0.083118125
       2978.4668     0.069771888
       2979.4294     0.083599851
       2980.3921     0.037178560
       2981.3548     0.092167254
       2982.3175     0.057057674
       2983.2802     0.025763479
       2984.2428     0.019073670
       2985.2055     0.041175825
       2986.1682     0.094730540
       2987.1309      0.11343385
       2988.0936     0.053434933
       2989.0563     0.076896033
       2990.0189     0.056166116
       2990.9816     0.050700378
       2991.9443     0.048908153
       2992.9070     0.086413872
       2993.8697     0.058116959
       2994.8323     0.058220045
       2995.7950     0.054458531
       2996.7577     0.083557179
       2997.7204     0.061835087
       2998.6831     0.073527704
       2999.6458     0.081521860
       3000.6084     0.085197744
       3001.5711     0.083072865
       3002.5338     0.086734500
       3003.4965     0.057097429
       3004.4592     0.082908742
       3005.4218      0.11342656
       3006.3845     0.015393437
       3007.3472     0.051338587
       3008.3099     0.062131776
       3009.2726     0.067547314
       3010.2353     0.067630752
       3011.1979      0.11098279
       3012.1606     0.080479295
       3013.1233     0.092048540
       3014.0860      0.11234343
       3015.0487     0.090991276
       3016.0113     0.081529243
       3016.9740     0.071595492
       3017.9367      0.11305161
       3018.8994     0.072186290
       3019.8621     0.080201797
       3020.8248     0.054677578
       3021.7874     0.087810584
       3022.7501      0.10883741
       3023.7128     0.099242397
       3024.6755     0.074708489
       3025.6382      0.10470004
       3026.6009     0.030986035
       3027.5635     0.061472288
       3028.5262     0.076353029
       3029.4889     0.084530162
       3030.4516     0.094725701
       3031.4143     0.064273507
       3032.3769     0.055356366
       3033.3396     0.046024739
       3034.3023     0.075053840
       3035.2650     0.097396146
       3036.2277     0.054605064
       3037.1904     0.052203527
       3038.1530     0.048904796
       3039.1157     0.085106872
       3040.0784     0.085236704
       3041.0411     0.069128440
       3042.0038     0.041028741
       3042.9664     0.049926898
       3043.9291     0.082642628
       3044.8918     0.061371182
       3045.8545     0.084658843
       3046.8172     0.040829529
       3047.7799     0.082832031
       3048.7425     0.049135006
       3049.7052     0.063086099
       3050.6679     0.098412476
       3051.6306     0.048941852
       3052.5933      0.11483558
       3053.5559      0.10411105
       3054.5186     0.064272573
       3055.4813     0.050375343
       3056.4440     0.086913923
       3057.4067     0.039699249
       3058.3694     0.070154032
       3059.3320     0.080331170
       3060.2947     0.045241880
       3061.2574     0.052561500
       3062.2201     0.094708275
       3063.1828     0.029937760
       3064.1455     0.073899443
       3065.1081     0.051024136
       3066.0708     0.077182710
       3067.0335     0.094710176
       3067.9962     0.026725311
       3068.9589     0.078631555
       3069.9215     0.032120299
       3070.8842     0.060325226
       3071.8469     0.059116901
       3072.8096      0.10720493
       3073.7723     0.073028080
       3074.7350     0.047535311
       3075.6976     0.066603876
       3076.6603     0.089951955
       3077.6230     0.060852883
       3078.5857     0.069627884
       3079.5484     0.042451038
       3080.5110     0.098338321
       3081.4737      0.10003196
       3082.4364     0.072562880
       3083.3991     0.044724584
       3084.3618     0.077623297
       3085.3245     0.070102162
       3086.2871     0.076650908
       3087.2498     0.097683122
       3088.2125     0.090831213
       3089.1752     0.070238125
       3090.1379     0.082545805
       3091.1005     0.094095337
       3092.0632     0.066222469
       3093.0259     0.093856404
       3093.9886     0.053218875
       3094.9513     0.052887091
       3095.9140     0.011684761
       3096.8766     0.033077227
       3097.8393     0.060768791
       3098.8020     0.089821271
       3099.7647     0.081440374
       3100.7274      0.12684331
       3101.6900      0.11008042
       3102.6527     0.057259984
       3103.6154     0.054786740
       3104.5781     0.084480256
       3105.5408     0.037970586
       3106.5035     0.048340263
       3107.4661     0.058292053
       3108.4288     0.078726199
       3109.3915     0.091764717
       3110.3542      0.10472246
       3111.3169     0.082966825
       3112.2796     0.084848188
       3113.2422     0.076883190
       3114.2049     0.076231369
       3115.1676     0.093303978
       3116.1303     0.063926645
       3117.0930     0.058303041
       3118.0556     0.090947410
       3119.0183     0.058684405
       3119.9810     0.054620225
       3120.9437     0.071807357
       3121.9064     0.050353761
       3122.8691     0.053387118
       3123.8317     0.045644556
       3124.7944     0.049700616
       3125.7571     0.083756369
       3126.7198      0.10582250
       3127.6825     0.082435896
       3128.6451     0.057147926
       3129.6078     0.084785895
       3130.5705     0.088016253
       3131.5332     0.091622261
       3132.4959     0.085141681
       3133.4586     0.057922060
       3134.4212      0.11261518
       3135.3839      0.10257079
       3136.3466     0.081127382
       3137.3093     0.084643526
       3138.2720     0.056183620
       3139.2346     0.089430563
       3140.1973     0.088373606
       3141.1600     0.053972885
       3142.1227     0.079096004
       3143.0854     0.089469809
       3144.0481      0.10467081
       3145.0107      0.10973599
       3145.9734     0.074844642
       3146.9361     0.084633843
       3147.8988     0.083865180
       3148.8615      0.12563334
       3149.8241      0.10705068
       3150.7868      0.11246468
       3151.7495      0.10224589
       3152.7122     0.049640656
       3153.6749     0.096426299
       3154.6376     0.092061851
       3155.6002      0.10616899
       3156.5629     0.083348323
       3157.5256      0.11660683
       3158.4883     0.069520476
       3159.4510     0.081865112
       3160.4137     0.070054838
       3161.3763      0.10052971
       3162.3390     0.069671654
       3163.3017     0.086237988
       3164.2644     0.055191216
       3165.2271     0.077526422
       3166.1897     0.078055841
       3167.1524     0.093200845
       3168.1151     0.074460015
       3169.0778     0.064296110
       3170.0405     0.054619544
       3171.0032     0.084957008
       3171.9658     0.083678207
       3172.9285     0.088856411
       3173.8912     0.091091422
       3174.8539      0.11509771
       3175.8166     0.070937792
       3176.7792     0.087863837
       3177.7419     0.094843107
       3178.7046      0.11010708
       3179.6673     0.094169813
       3180.6300     0.098713790
       3181.5927     0.079269599
       3182.5553     0.083689262
       3183.5180     0.085699702
       3184.4807      0.10610197
       3185.4434     0.089506838
       3186.4061      0.10243480
       3187.3687     0.068859058
       3188.3314     0.079879006
       3189.2941     0.092451952
       3190.2568     0.089720932
       3191.2195     0.071581917
       3192.1822     0.080743522
       3193.1448     0.082557489
       3194.1075     0.075774875
       3195.0702     0.072384074
       3196.0329     0.060279113
       3196.9956     0.087808320
       3197.9583     0.066083633
       3198.9209     0.090807506
       3199.8836     0.084217847
       3200.8463     0.080965422
       3201.8090     0.098311609
       3202.7717     0.059690722
       3203.7343     0.076079583
       3204.6970      0.10837167
       3205.6597      0.11204573
       3206.6224     0.060220990
       3207.5851     0.079224403
       3208.5478     0.085569135
       3209.5104      0.11969236
       3210.4731      0.10100582
       3211.4358      0.10268813
       3212.3985     0.076220260
       3213.3612     0.094151579
       3214.3238      0.11544351
       3215.2865     0.089180863
       3216.2492     0.083968731
       3217.2119     0.078046459
       3218.1746     0.094412524
       3219.1373     0.070849032
       3220.0999     0.096488546
       3221.0626      0.11413157
       3222.0253     0.092422067
       3222.9880     0.091207930
       3223.9507     0.066207308
       3224.9133     0.075288180
       3225.8760     0.071487821
       3226.8387     0.055079661
       3227.8014     0.084344155
       3228.7641     0.093385547
       3229.7268     0.081339888
       3230.6894     0.093944464
       3231.6521     0.092077869
       3232.6148     0.096203235
       3233.5775     0.061613192
       3234.5402     0.096284207
       3235.5028     0.098064489
       3236.4655     0.074747796
       3237.4282     0.081070716
       3238.3909     0.084630208
       3239.3536     0.087632551
       3240.3163     0.071157970
       3241.2789     0.085261730
       3242.2416      0.10292546
       3243.2043      0.12384328
       3244.1670      0.10274689
       3245.1297     0.088325141
       3246.0924     0.087480531
       3247.0550     0.079253196
       3248.0177     0.079983784
       3248.9804     0.072881862
       3249.9431     0.070916233
       3250.9058     0.088518787
       3251.8684      0.10165251
       3252.8311     0.083281808
       3253.7938     0.089401722
       3254.7565     0.084610783
       3255.7192     0.077175563
       3256.6819     0.094734614
       3257.6445     0.083801003
       3258.6072      0.10408785
       3259.5699      0.11864489
       3260.5326     0.086254278
       3261.4953      0.10798543
       3262.4579     0.096442916
       3263.4206      0.10568460
       3264.3833     0.090159041
       3265.3460     0.081274062
       3266.3087     0.090616319
       3267.2714     0.086614687
       3268.2340     0.095566865
       3269.1967      0.12045686
       3270.1594      0.11345033
       3271.1221     0.098969585
       3272.0848      0.11255765
       3273.0474     0.098107575
       3274.0101     0.090183640
       3274.9728     0.085077886
       3275.9355      0.10201876
       3276.8982      0.10001185
       3277.8609     0.079558918
       3278.8235      0.12115210
       3279.7862      0.10609978
       3280.7489     0.098476703
       3281.7116     0.085370522
       3282.6743     0.084453764
       3283.6370     0.082018729
       3284.5996     0.085651929
       3285.5623     0.093712978
       3286.5250     0.080394309
       3287.4877      0.10088362
       3288.4504      0.10110688
       3289.4130     0.099237627
       3290.3757      0.12338641
       3291.3384      0.11624434
       3292.3011     0.093070550
       3293.2638     0.092986868
       3294.2265      0.10982563
       3295.1891      0.12686005
       3296.1518      0.11160369
       3297.1145      0.12729646
       3298.0772      0.11299102
       3299.0399     0.081908224
       3300.0025      0.11378539
       3300.9652      0.11327573
       3301.9279      0.10981198
       3302.8906      0.12404941
       3303.8533      0.12143905
       3304.8160      0.10241076
       3305.7786     0.089273858
       3306.7413     0.091601780
       3307.7040      0.11849017
       3308.6667      0.14558643
       3309.6294      0.12601600
       3310.5920     0.095188510
       3311.5547     0.091219131
       3312.5174     0.095853004
       3313.4801      0.10014737
       3314.4428      0.11208196
       3315.4055     0.098712846
       3316.3681      0.13459165
       3317.3308      0.13093893
       3318.2935      0.10863242
       3319.2562      0.11429680
       3320.2189      0.11908349
       3321.1815      0.11524340
       3322.1442      0.11341249
       3323.1069      0.11355567
       3324.0696      0.12067660
       3325.0323      0.11477868
       3325.9950      0.11290659
       3326.9576     0.099051606
       3327.9203      0.12361981
       3328.8830      0.13894113
       3329.8457      0.11736889
       3330.8084      0.10498950
       3331.7711      0.10896634
       3332.7337     0.099596585
       3333.6964      0.10720247
       3334.6591      0.10557182
       3335.6218      0.10938950
       3336.5845      0.10157949
       3337.5471      0.10744409
       3338.5098      0.11313058
       3339.4725      0.11410023
       3340.4352     0.095305980
       3341.3979      0.11580980
       3342.3606      0.11720596
       3343.3232     0.088126691
       3344.2859      0.12586134
       3345.2486      0.13315433
       3346.2113     0.095103667
       3347.1740     0.096626935
       3348.1366      0.10317709
       3349.0993     0.092594853
       3350.0620      0.10168066
       3351.0247      0.10614381
       3351.9874      0.13732442
       3352.9501      0.14500009
       3353.9127      0.13883223
       3354.8754      0.11266741
       3355.8381      0.11726053
       3356.8008      0.11701000
       3357.7635      0.11003071
       3358.7261      0.12439865
       3359.6888      0.11028110
       3360.6515      0.10258388
       3361.6142      0.10428355
       3362.5769      0.10881339
       3363.5396      0.11001452
       3364.5022      0.11547803
       3365.4649      0.10532970
       3366.4276      0.11922766
       3367.3903      0.10321805
       3368.3530      0.11705947
       3369.3157      0.12357033
       3370.2783      0.11203460
       3371.2410      0.11296415
       3372.2037      0.11669216
